# wavelength flux
3351.64160 1.15052e-17
3353.33919 1.32887e-17
3355.03678 1.52321e-17
3356.73437 1.59567e-17
3358.43196 1.56850e-17
3360.12954 1.88820e-17
3361.82713 1.83123e-17
3363.51468 1.49765e-17
3365.21226 1.56774e-17
3366.90985 1.71823e-17
3368.60744 1.63618e-17
3370.30503 1.66751e-17
3372.00262 1.90067e-17
3373.70020 1.69843e-17
3375.39779 1.20457e-17
3377.09538 8.59229e-18
3378.79297 9.01903e-18
3380.48051 7.66926e-18
3382.17810 7.58697e-18
3383.87569 9.46651e-18
3385.57328 7.92830e-18
3387.27086 5.91525e-18
3388.96845 6.62502e-18
3390.66604 6.22000e-18
3392.36363 5.02599e-18
3394.06122 5.99837e-18
3395.75880 8.44569e-18
3397.45639 1.12735e-17
3399.14394 1.23693e-17
3400.84152 1.34410e-17
3402.53911 1.49890e-17
3404.23670 1.55441e-17
3405.93429 1.41827e-17
3407.63188 1.52502e-17
3409.32946 1.80285e-17
3411.02705 2.02690e-17
3412.72464 1.99848e-17
3414.42223 1.97246e-17
3416.11982 2.04452e-17
3417.80736 1.81698e-17
3419.50495 1.40603e-17
3421.20254 1.33283e-17
3422.90012 1.14686e-17
3424.59771 7.14632e-18
3426.29530 8.76986e-18
3427.99289 1.40002e-17
3429.69048 1.71798e-17
3431.38806 1.96733e-17
3433.08565 2.06998e-17
3434.77320 1.98246e-17
3436.47078 1.68422e-17
3438.16837 1.15030e-17
3439.86596 8.81437e-18
3441.56355 9.90186e-18
3443.26114 9.20486e-18
3444.95872 8.94190e-18
3446.65631 1.26442e-17
3448.35390 1.58357e-17
3450.05149 1.73530e-17
3451.74908 1.96766e-17
3453.43662 1.98436e-17
3455.13421 1.65564e-17
3456.83180 1.53708e-17
3458.52938 1.46737e-17
3460.22697 1.49308e-17
3461.92456 1.73171e-17
3463.62215 1.82887e-17
3465.31974 1.46333e-17
3467.01732 1.25347e-17
3468.71491 1.20806e-17
3470.41250 1.12801e-17
3472.10004 1.28761e-17
3473.79763 1.65239e-17
3475.49522 1.80080e-17
3477.19281 1.78355e-17
3478.89040 1.90870e-17
3480.58798 1.87023e-17
3482.28557 1.75485e-17
3483.98316 1.83454e-17
3485.68075 1.71932e-17
3487.37834 1.66002e-17
3489.06588 1.45890e-17
3490.76347 1.31000e-17
3492.46106 1.52759e-17
3494.15864 1.65353e-17
3495.85623 1.38912e-17
3497.55382 1.72619e-17
3499.25141 2.22440e-17
3500.94900 2.01121e-17
3502.64659 1.76890e-17
3504.34417 1.95460e-17
3506.04176 1.95292e-17
3507.72930 1.72657e-17
3509.42689 1.80528e-17
3511.12448 2.12676e-17
3512.82207 2.06216e-17
3514.51966 1.82620e-17
3516.21725 1.71815e-17
3517.91483 1.82451e-17
3519.61242 1.82728e-17
3521.31001 1.89949e-17
3523.00760 2.13874e-17
3524.70519 2.27346e-17
3526.39273 2.08622e-17
3528.09032 1.90279e-17
3529.78790 1.75279e-17
3531.48549 1.45321e-17
3533.18308 1.33762e-17
3534.88067 1.42799e-17
3536.57826 1.63186e-17
3538.27585 1.85561e-17
3539.97343 1.99290e-17
3541.67102 1.96584e-17
3543.35856 1.96150e-17
3545.05615 1.85536e-17
3546.75374 1.69025e-17
3548.45133 1.60269e-17
3550.14892 1.61256e-17
3551.84651 1.66701e-17
3553.54409 1.61684e-17
3555.24168 1.63192e-17
3556.93927 1.85128e-17
3558.63686 1.89156e-17
3560.33445 1.65866e-17
3562.02199 1.62847e-17
3563.71958 1.56296e-17
3565.41717 1.46327e-17
3567.11475 1.66424e-17
3568.81234 1.72224e-17
3570.50993 1.65899e-17
3572.20752 1.73071e-17
3573.90511 1.71611e-17
3575.60269 1.58500e-17
3577.30028 1.69364e-17
3578.99787 1.81316e-17
3580.68541 2.01622e-17
3582.38300 2.05894e-17
3584.08059 1.74782e-17
3585.77818 1.58502e-17
3587.47577 1.72573e-17
3589.17335 1.74508e-17
3590.87094 1.99853e-17
3592.56853 2.35203e-17
3594.26612 2.40501e-17
3595.96371 2.31175e-17
3597.65125 2.10469e-17
3599.34884 1.70851e-17
3601.04643 1.72527e-17
3602.74401 1.80469e-17
3604.44160 1.69923e-17
3606.13919 1.78425e-17
3607.83678 2.00583e-17
3609.53437 1.89640e-17
3611.23195 1.58318e-17
3612.92954 1.48858e-17
3614.62713 1.65416e-17
3616.31467 2.08056e-17
3618.01226 2.31924e-17
3619.70985 2.61301e-17
3621.40744 2.85788e-17
3623.10503 2.56155e-17
3624.80261 1.91338e-17
3626.50020 1.69352e-17
3628.19779 1.66399e-17
3629.89538 1.40742e-17
3631.59297 1.40383e-17
3633.29055 1.47269e-17
3634.97810 1.50393e-17
3636.67569 1.63295e-17
3638.37327 1.67095e-17
3640.07086 1.66042e-17
3641.76845 1.84335e-17
3643.46604 1.88698e-17
3645.16363 1.77209e-17
3646.86121 1.92729e-17
3648.55880 1.90974e-17
3650.25639 1.60977e-17
3651.94393 1.48249e-17
3653.64152 1.37680e-17
3655.33911 1.21844e-17
3657.03670 1.25514e-17
3658.73429 1.40570e-17
3660.43187 1.51063e-17
3662.12946 1.58515e-17
3663.82705 1.68485e-17
3665.52464 1.70370e-17
3667.22223 1.64783e-17
3668.91981 1.48933e-17
3670.60736 1.55806e-17
3672.30495 1.61340e-17
3674.00253 1.69040e-17
3675.70012 1.67423e-17
3677.39771 1.58483e-17
3679.09530 1.51833e-17
3680.79289 1.56382e-17
3682.49047 1.41462e-17
3684.18806 1.49145e-17
3685.88565 1.67803e-17
3687.57319 1.67308e-17
3689.27078 1.56892e-17
3690.96837 1.63012e-17
3692.66596 1.59780e-17
3694.36355 1.58695e-17
3696.06113 1.61751e-17
3697.75872 1.46912e-17
3699.45631 1.31062e-17
3701.15390 1.25055e-17
3702.85149 1.21523e-17
3704.54908 1.08291e-17
3706.23662 9.70791e-18
3707.93421 7.48695e-18
3709.63179 6.25185e-18
3711.32938 4.48927e-18
3713.02697 4.14165e-18
3714.72456 5.53352e-18
3716.42215 8.25327e-18
3718.11974 8.86465e-18
3719.81732 1.03361e-17
3721.51491 1.12163e-17
3723.21250 1.10899e-17
3724.90004 1.02849e-17
3726.59763 9.74542e-18
3728.29522 9.84994e-18
3729.99281 1.08023e-17
3731.69039 1.13311e-17
3733.38798 1.07539e-17
3735.08557 1.04881e-17
3736.78316 1.02003e-17
3738.48075 9.30535e-18
3740.17834 9.65771e-18
3741.86588 1.16355e-17
3743.56347 1.19139e-17
3745.26105 1.03845e-17
3746.95864 9.63563e-18
3748.65623 9.66775e-18
3750.35382 9.41088e-18
3752.05141 8.71433e-18
3753.74900 8.24105e-18
3755.44658 8.78428e-18
3757.14417 9.18301e-18
3758.84176 8.31878e-18
3760.52930 9.62928e-18
3762.22689 1.16259e-17
3763.92448 1.09727e-17
3765.62207 9.25695e-18
3767.31966 7.29019e-18
3769.01724 5.20354e-18
3770.71483 3.88479e-18
3772.41242 4.25099e-18
3774.11001 4.30556e-18
3775.80760 4.83529e-18
3777.50518 6.97560e-18
3779.19273 7.70886e-18
3780.89032 6.13952e-18
3782.58790 5.90678e-18
3784.28549 7.56826e-18
3785.98308 7.02391e-18
3787.68067 6.18542e-18
3789.37826 6.71474e-18
3791.07584 1.02067e-17
3792.77343 7.73845e-18
3794.47102 8.85034e-18
3796.15856 9.17023e-18
3797.85615 9.49007e-18
3799.55374 9.93567e-18
3801.25133 9.57785e-18
3802.94892 1.04494e-17
3804.64650 1.07690e-17
3806.34409 1.10887e-17
3808.04168 9.93180e-18
3809.73927 1.17278e-17
3811.43686 1.20472e-17
3813.13444 1.23667e-17
3814.82199 1.09895e-17
3816.51958 1.02821e-17
3818.21716 1.07665e-17
3819.91475 1.25754e-17
3821.61234 1.34697e-17
3823.30993 1.42778e-17
3825.00752 1.42191e-17
3826.70510 1.32009e-17
3828.40269 1.17069e-17
3830.10028 1.15138e-17
3831.79787 1.14744e-17
3833.48541 1.20249e-17
3835.18300 1.23571e-17
3836.88059 1.31756e-17
3838.57818 1.41019e-17
3840.27576 1.51011e-17
3841.97335 1.45142e-17
3843.67094 1.44895e-17
3845.36853 1.41832e-17
3847.06612 1.22701e-17
3848.76370 1.02861e-17
3850.45125 1.10972e-17
3852.14884 1.26059e-17
3853.84642 1.26363e-17
3855.54401 1.47322e-17
3857.24160 1.66780e-17
3858.93919 1.63682e-17
3860.63678 1.61455e-17
3862.33436 1.70108e-17
3864.03195 1.70838e-17
3865.72954 1.66116e-17
3867.42713 1.77322e-17
3869.11467 1.80128e-17
3870.81226 1.73028e-17
3872.50985 1.70448e-17
3874.20744 1.88777e-17
3875.90502 1.87822e-17
3877.60261 1.73792e-17
3879.30020 1.77224e-17
3880.99779 1.80252e-17
3882.69538 1.80884e-17
3884.39296 1.88290e-17
3886.09055 2.03293e-17
3887.77810 2.13122e-17
3889.47568 2.18705e-17
3891.17327 1.97217e-17
3892.87086 1.78796e-17
3894.56845 1.79173e-17
3896.26604 1.71376e-17
3897.96362 1.55409e-17
3899.66121 1.69819e-17
3901.35880 1.87553e-17
3903.05639 1.90932e-17
3904.74393 2.02519e-17
3906.44152 2.22739e-17
3908.13911 2.36229e-17
3909.83670 2.45375e-17
3911.53428 2.33649e-17
3913.23187 2.28948e-17
3914.92946 2.18254e-17
3916.62705 2.04312e-17
3918.32464 2.07346e-17
3920.02223 2.24555e-17
3921.71981 2.21574e-17
3923.40736 2.22137e-17
3925.10494 2.32890e-17
3926.80253 2.23525e-17
3928.50012 2.15479e-17
3930.19771 2.36317e-17
3931.89530 2.46855e-17
3933.59288 2.38420e-17
3935.29047 2.38344e-17
3936.98806 2.39283e-17
3938.68565 2.17520e-17
3940.38324 2.05333e-17
3942.07078 2.13550e-17
3943.76837 2.23067e-17
3945.46596 2.28576e-17
3947.16354 2.37404e-17
3948.86113 2.49108e-17
3950.55872 2.42642e-17
3952.25631 2.33907e-17
3953.95390 2.36911e-17
3955.65149 2.38835e-17
3957.34907 2.37263e-17
3959.03662 2.46876e-17
3960.73420 2.43720e-17
3962.43179 2.43907e-17
3964.12938 2.48810e-17
3965.82697 2.52226e-17
3967.52456 2.37243e-17
3969.22215 2.25326e-17
3970.91973 2.20262e-17
3972.61732 2.11163e-17
3974.31491 2.01533e-17
3976.01250 2.06610e-17
3977.70004 2.15603e-17
3979.39763 2.11851e-17
3981.09522 2.12121e-17
3982.79281 2.12463e-17
3984.49039 2.09545e-17
3986.18798 2.15481e-17
3987.88557 2.29206e-17
3989.58316 2.40152e-17
3991.28075 2.53401e-17
3992.97833 2.73264e-17
3994.67592 2.89346e-17
3996.36347 2.83635e-17
3998.06105 2.73712e-17
3999.75864 2.69008e-17
4001.45623 2.64934e-17
4003.15382 2.64225e-17
4004.85141 2.70184e-17
4006.54899 2.68176e-17
4008.24658 2.59965e-17
4009.94417 2.48709e-17
4011.64176 2.52719e-17
4013.32930 2.68328e-17
4015.02689 2.79853e-17
4016.72448 2.84538e-17
4018.42207 2.77522e-17
4020.11965 2.63366e-17
4021.81724 2.40707e-17
4023.51483 2.32427e-17
4025.21242 2.41823e-17
4026.91001 2.60455e-17
4028.60759 2.60085e-17
4030.30518 2.64325e-17
4031.99273 2.63475e-17
4033.69031 2.43352e-17
4035.38790 2.22814e-17
4037.08549 2.16943e-17
4038.78308 2.05771e-17
4040.48067 2.10696e-17
4042.17825 2.24683e-17
4043.87584 2.28439e-17
4045.57343 2.11433e-17
4047.27102 2.16172e-17
4048.96861 2.16600e-17
4050.65615 2.11294e-17
4052.35374 2.20710e-17
4054.05133 2.48194e-17
4055.74891 2.48490e-17
4057.44650 2.35213e-17
4059.14409 2.34288e-17
4060.84168 2.24977e-17
4062.53927 2.13575e-17
4064.23685 2.19704e-17
4065.93444 2.36536e-17
4067.62199 2.41972e-17
4069.31957 2.45122e-17
4071.01716 2.27543e-17
4072.71475 2.09522e-17
4074.41234 1.94629e-17
4076.10993 1.89253e-17
4077.80751 1.87986e-17
4079.50510 2.00441e-17
4081.20269 2.07869e-17
4082.90028 2.08564e-17
4084.59787 1.99558e-17
4086.28541 1.88319e-17
4087.98300 1.80087e-17
4089.68059 1.65361e-17
4091.37817 1.62383e-17
4093.07576 1.79195e-17
4094.77335 1.99252e-17
4096.47094 2.16863e-17
4098.16853 2.35317e-17
4099.86611 2.38713e-17
4101.56370 2.25178e-17
4103.26129 2.10432e-17
4104.94883 1.97427e-17
4106.64642 1.94786e-17
4108.34401 1.91613e-17
4110.04160 1.90613e-17
4111.73919 2.04879e-17
4113.43677 2.19189e-17
4115.13436 2.21489e-17
4116.83195 2.25571e-17
4118.52954 2.19974e-17
4120.22713 1.94190e-17
4121.91467 1.77812e-17
4123.61226 1.76744e-17
4125.30985 1.79145e-17
4127.00743 1.85878e-17
4128.70502 1.94869e-17
4130.40261 1.95106e-17
4132.10020 1.99198e-17
4133.79779 2.01951e-17
4135.49537 2.01658e-17
4137.19296 2.05490e-17
4138.89055 2.12848e-17
4140.57809 2.08339e-17
4142.27568 1.98637e-17
4143.97327 1.92426e-17
4145.67086 1.92451e-17
4147.36845 1.95860e-17
4149.06603 1.96112e-17
4150.76362 1.89753e-17
4152.46121 1.81676e-17
4154.15880 1.71531e-17
4155.85639 1.62320e-17
4157.55398 1.59824e-17
4159.24152 1.63651e-17
4160.93911 1.70738e-17
4162.63669 1.70743e-17
4164.33428 1.64604e-17
4166.03187 1.55245e-17
4167.72946 1.54879e-17
4169.42705 1.65374e-17
4171.12464 1.78219e-17
4172.82222 1.95116e-17
4174.51981 2.00622e-17
4176.20735 2.01003e-17
4177.90494 2.00901e-17
4179.60253 1.94017e-17
4181.30012 1.87330e-17
4182.99771 1.89549e-17
4184.69530 1.95166e-17
4186.39288 1.96683e-17
4188.09047 2.04476e-17
4189.78806 1.96675e-17
4191.48565 1.89757e-17
4193.18324 1.93300e-17
4194.87078 1.83584e-17
4196.56837 1.68535e-17
4198.26596 1.72444e-17
4199.96354 1.76593e-17
4201.66113 1.68895e-17
4203.35872 1.72465e-17
4205.05631 1.79515e-17
4206.75390 1.87058e-17
4208.45148 1.98346e-17
4210.14907 1.99376e-17
4211.84666 1.93965e-17
4213.53420 2.04354e-17
4215.23179 2.04767e-17
4216.92938 1.95944e-17
4218.62697 1.91206e-17
4220.32456 1.86301e-17
4222.02214 1.85188e-17
4223.71973 1.93760e-17
4225.41732 1.91712e-17
4227.11491 1.90130e-17
4228.81250 1.96852e-17
4230.50004 1.93038e-17
4232.19763 1.85148e-17
4233.89522 1.80924e-17
4235.59280 1.76687e-17
4237.29039 1.76080e-17
4238.98798 1.78063e-17
4240.68557 1.77330e-17
4242.38316 1.90709e-17
4244.08074 2.00291e-17
4245.77833 1.93641e-17
4247.47592 1.83389e-17
4249.16346 1.84713e-17
4250.86105 1.87022e-17
4252.55864 1.92923e-17
4254.25623 2.07319e-17
4255.95382 2.20555e-17
4257.65140 2.12227e-17
4259.34899 1.95957e-17
4261.04658 1.88060e-17
4262.74417 1.90464e-17
4264.44176 1.92076e-17
4266.13934 1.97850e-17
4267.82689 1.97302e-17
4269.52448 1.96651e-17
4271.22206 1.96210e-17
4272.91965 1.88606e-17
4274.61724 1.80939e-17
4276.31483 1.83325e-17
4278.01242 1.76758e-17
4279.71000 1.59622e-17
4281.40759 1.54978e-17
4283.10518 1.62682e-17
4284.80277 1.74855e-17
4286.49031 1.88618e-17
4288.18790 2.00823e-17
4289.88549 2.09087e-17
4291.58308 2.02402e-17
4293.28066 1.91430e-17
4294.97825 1.81074e-17
4296.67584 1.75896e-17
4298.37343 1.71757e-17
4300.07102 1.78957e-17
4301.76860 1.85001e-17
4303.45615 1.88503e-17
4305.15374 1.86138e-17
4306.85132 1.76192e-17
4308.54891 1.64027e-17
4310.24650 1.48411e-17
4311.94409 1.40072e-17
4313.64168 1.43502e-17
4315.33926 1.48482e-17
4317.03685 1.46993e-17
4318.73444 1.51603e-17
4320.43203 1.62159e-17
4322.11957 1.62614e-17
4323.81716 1.70510e-17
4325.51475 1.68839e-17
4327.21234 1.65115e-17
4328.90992 1.49338e-17
4330.60751 1.39806e-17
4332.30510 1.39045e-17
4334.00269 1.47383e-17
4335.70028 1.56757e-17
4337.39786 1.70945e-17
4339.08541 1.76873e-17
4340.78300 1.78295e-17
4342.48058 1.74295e-17
4344.17817 1.70426e-17
4345.87576 1.70949e-17
4347.57335 1.69147e-17
4349.27094 1.62942e-17
4350.96852 1.69634e-17
4352.66611 1.65828e-17
4354.36370 1.58032e-17
4356.06129 1.57242e-17
4357.74883 1.57836e-17
4359.44642 1.49399e-17
4361.14401 1.48120e-17
4362.84160 1.53361e-17
4364.53918 1.61521e-17
4366.23677 1.58775e-17
4367.93436 1.53339e-17
4369.63195 1.51250e-17
4371.32954 1.54183e-17
4373.02713 1.50984e-17
4374.72471 1.52557e-17
4376.41226 1.66726e-17
4378.10984 1.80053e-17
4379.80743 1.80304e-17
4381.50502 1.78184e-17
4383.20261 1.66683e-17
4384.90020 1.57235e-17
4386.59779 1.53805e-17
4388.29537 1.43977e-17
4389.99296 1.42493e-17
4391.69055 1.49033e-17
4393.37809 1.47150e-17
4395.07568 1.35384e-17
4396.77327 1.37820e-17
4398.47086 1.42478e-17
4400.16845 1.53141e-17
4401.86603 1.60260e-17
4403.56362 1.67469e-17
4405.26121 1.62311e-17
4406.95880 1.51336e-17
4408.65639 1.42212e-17
4410.35397 1.33307e-17
4412.04152 1.23508e-17
4413.73910 1.28589e-17
4415.43669 1.40787e-17
4417.13428 1.43043e-17
4418.83187 1.56431e-17
4420.52946 1.65672e-17
4422.22705 1.54884e-17
4423.92463 1.40879e-17
4425.62222 1.43166e-17
4427.31981 1.35170e-17
4429.01740 1.11670e-17
4430.70494 1.05826e-17
4432.40253 1.14042e-17
4434.10012 1.10183e-17
4435.79771 1.08818e-17
4437.49529 1.37347e-17
4439.19288 1.60233e-17
4440.89047 1.70023e-17
4442.58806 1.74630e-17
4444.28565 1.84504e-17
4445.98323 1.91589e-17
4447.67078 1.94648e-17
4449.36837 1.85579e-17
4451.06595 1.71906e-17
4452.76354 1.77891e-17
4454.46113 1.75004e-17
4456.15872 1.57589e-17
4457.85631 1.57530e-17
4459.55389 1.72441e-17
4461.25148 1.72233e-17
4462.94907 1.76997e-17
4464.64666 1.84738e-17
4466.33420 1.84802e-17
4468.03179 1.81410e-17
4469.72938 1.72570e-17
4471.42697 1.57694e-17
4473.12455 1.58366e-17
4474.82214 1.61872e-17
4476.51973 1.70095e-17
4478.21732 1.83297e-17
4479.91491 1.95067e-17
4481.61249 1.95678e-17
4483.31008 1.89262e-17
4484.99763 1.80873e-17
4486.69521 1.73684e-17
4488.39280 1.73899e-17
4490.09039 1.76794e-17
4491.78798 1.83070e-17
4493.48557 1.93515e-17
4495.18315 2.00086e-17
4496.88074 2.02266e-17
4498.57833 2.15835e-17
4500.27592 2.22307e-17
4501.96346 2.12936e-17
4503.66105 2.10740e-17
4505.35864 2.18035e-17
4507.05623 2.10806e-17
4508.75381 2.09498e-17
4510.45140 2.14764e-17
4512.14899 2.14211e-17
4513.84658 2.08677e-17
4515.54417 2.14881e-17
4517.24175 2.26026e-17
4518.93934 2.31027e-17
4520.62689 2.36787e-17
4522.32447 2.41354e-17
4524.02206 2.34380e-17
4525.71965 2.24858e-17
4527.41724 2.25931e-17
4529.11483 2.18962e-17
4530.81241 2.12503e-17
4532.51000 2.14920e-17
4534.20759 2.15981e-17
4535.90518 2.12143e-17
4537.59272 2.17936e-17
4539.29031 2.21806e-17
4540.98790 2.22497e-17
4542.68549 2.29271e-17
4544.38307 2.39718e-17
4546.08066 2.39073e-17
4547.77825 2.38407e-17
4549.47584 2.40855e-17
4551.17343 2.36719e-17
4552.87101 2.31431e-17
4554.56860 2.26478e-17
4556.26619 2.21651e-17
4557.95373 2.24404e-17
4559.65132 2.24357e-17
4561.34891 2.19537e-17
4563.04650 2.28133e-17
4564.74409 2.39010e-17
4566.44167 2.35939e-17
4568.13926 2.42657e-17
4569.83685 2.56178e-17
4571.53444 2.59716e-17
4573.23203 2.67814e-17
4574.91957 2.76846e-17
4576.61716 2.71584e-17
4578.31475 2.59739e-17
4580.01233 2.51728e-17
4581.70992 2.43998e-17
4583.40751 2.43801e-17
4585.10510 2.46738e-17
4586.80269 2.49678e-17
4588.50028 2.55049e-17
4590.19786 2.55943e-17
4591.89545 2.50631e-17
4593.58299 2.53386e-17
4595.28058 2.60740e-17
4596.97817 2.59214e-17
4598.67576 2.59500e-17
4600.37335 2.62357e-17
4602.07094 2.53320e-17
4603.76852 2.35046e-17
4605.46611 2.23880e-17
4607.16370 2.22248e-17
4608.86129 2.25061e-17
4610.54883 2.36903e-17
4612.24642 2.63329e-17
4613.94401 2.81502e-17
4615.64159 2.75534e-17
4617.33918 2.70830e-17
4619.03677 2.76749e-17
4620.73436 2.72151e-17
4622.43195 2.72916e-17
4624.12954 2.87769e-17
4625.82712 2.93797e-17
4627.52471 2.85164e-17
4629.21225 2.79092e-17
4630.90984 2.76949e-17
4632.60743 2.65503e-17
4634.30502 2.51562e-17
4636.00261 2.50256e-17
4637.70020 2.49754e-17
4639.39778 2.35903e-17
4641.09537 2.28450e-17
4642.79296 2.28933e-17
4644.49055 2.22578e-17
4646.18814 2.15824e-17
4647.87568 2.17361e-17
4649.57327 2.27073e-17
4651.27086 2.35202e-17
4652.96844 2.39573e-17
4654.66603 2.50800e-17
4656.36362 2.63012e-17
4658.06121 2.65540e-17
4659.75880 2.69367e-17
4661.45638 2.77066e-17
4663.15397 2.75809e-17
4664.84152 2.68928e-17
4666.53910 2.57710e-17
4668.23669 2.49630e-17
4669.93428 2.41434e-17
4671.63187 2.35486e-17
4673.32946 2.38674e-17
4675.02704 2.45527e-17
4676.72463 2.43225e-17
4678.42222 2.44352e-17
4680.11981 2.44570e-17
4681.81740 2.37017e-17
4683.50494 2.31634e-17
4685.20253 2.27306e-17
4686.90012 2.14603e-17
4688.59770 2.01453e-17
4690.29529 1.94486e-17
4691.99288 1.83997e-17
4693.69047 1.76976e-17
4695.38806 1.81242e-17
4697.08564 1.89661e-17
4698.78323 1.92576e-17
4700.48082 1.94577e-17
4702.16836 1.99252e-17
4703.86595 2.03017e-17
4705.56354 1.72780e-17
4707.26113 1.29264e-17
4708.95872 1.24294e-17
4710.65630 1.28010e-17
4712.35389 1.22217e-17
4714.05148 1.48341e-17
4715.74907 1.89096e-17
4717.44666 2.00642e-17
4719.13420 2.00271e-17
4720.83179 1.98352e-17
4722.52938 1.91495e-17
4724.22696 1.88987e-17
4725.92455 1.82622e-17
4727.62214 1.76208e-17
4729.31973 1.77733e-17
4731.01732 1.81374e-17
4732.71490 1.82171e-17
4734.41249 1.79427e-17
4736.11008 1.67792e-17
4737.79762 1.55721e-17
4739.49521 1.57624e-17
4741.19280 1.55862e-17
4742.89039 1.50302e-17
4744.58798 1.58997e-17
4746.28556 1.62464e-17
4747.98315 1.61515e-17
4749.68074 1.61986e-17
4751.37833 1.63812e-17
4753.07592 1.64577e-17
4754.77350 1.72025e-17
4756.46105 1.77518e-17
4758.15864 1.75585e-17
4759.85622 1.75584e-17
4761.55381 1.74868e-17
4763.25140 1.64848e-17
4764.94899 1.57986e-17
4766.64658 1.59308e-17
4768.34416 1.58059e-17
4770.04175 1.56132e-17
4771.73934 1.52794e-17
4773.42688 1.48955e-17
4775.12447 1.49109e-17
4776.82206 1.52996e-17
4778.51965 1.56843e-17
4780.21724 1.55982e-17
4781.91482 1.50039e-17
4783.61241 1.43221e-17
4785.31000 1.38582e-17
4787.00759 1.40136e-17
4788.70518 1.47825e-17
4790.40277 1.55139e-17
4792.09031 1.58574e-17
4793.78790 1.58713e-17
4795.48548 1.50394e-17
4797.18307 1.36747e-17
4798.88066 1.34501e-17
4800.57825 1.47024e-17
4802.27584 1.53641e-17
4803.97343 1.47429e-17
4805.67101 1.41154e-17
4807.36860 1.35172e-17
4809.05614 1.30691e-17
4810.75373 1.33331e-17
4812.45132 1.38087e-17
4814.14891 1.37981e-17
4815.84650 1.32615e-17
4817.54408 1.23983e-17
4819.24167 1.20722e-17
4820.93926 1.24831e-17
4822.63685 1.27182e-17
4824.33444 1.27686e-17
4826.03203 1.30962e-17
4827.71957 1.33054e-17
4829.41716 1.31762e-17
4831.11474 1.33968e-17
4832.81233 1.38898e-17
4834.50992 1.39509e-17
4836.20751 1.37628e-17
4837.90510 1.34503e-17
4839.60269 1.30322e-17
4841.30027 1.26068e-17
4842.99786 1.18147e-17
4844.69545 1.09657e-17
4846.38299 1.09001e-17
4848.08058 1.14821e-17
4849.77817 1.20828e-17
4851.47576 1.22746e-17
4853.17335 1.23270e-17
4854.87093 1.24710e-17
4856.56852 1.23374e-17
4858.26611 1.21242e-17
4859.96370 1.23140e-17
4861.66129 1.19821e-17
4863.35887 1.09879e-17
4865.04642 1.04762e-17
4866.74401 1.06769e-17
4868.44159 1.07733e-17
4870.13918 1.10201e-17
4871.83677 1.19770e-17
4873.53436 1.31696e-17
4875.23195 1.40962e-17
4876.92953 1.46057e-17
4878.62712 1.47765e-17
4880.32471 1.41161e-17
4882.01225 1.33623e-17
4883.70984 1.29660e-17
4885.40743 1.29871e-17
4887.10502 1.28450e-17
4888.80261 1.30491e-17
4890.50019 1.40501e-17
4892.19778 1.48839e-17
4893.89537 1.53001e-17
4895.59296 1.53331e-17
4897.29055 1.51061e-17
4898.97809 1.43015e-17
4900.67568 1.36160e-17
4902.37327 1.33577e-17
4904.07085 1.28528e-17
4905.76844 1.21887e-17
4907.46603 1.24471e-17
4909.16362 1.31297e-17
4910.86121 1.32437e-17
4912.55879 1.32229e-17
4914.25638 1.29889e-17
4915.95397 1.25162e-17
4917.65156 1.26564e-17
4919.33910 1.30659e-17
4921.03669 1.34147e-17
4922.73428 1.39117e-17
4924.43187 1.42288e-17
4926.12945 1.42897e-17
4927.82704 1.44952e-17
4929.52463 1.44162e-17
4931.22222 1.38200e-17
4932.91981 1.34705e-17
4934.61739 1.33549e-17
4936.30494 1.34492e-17
4938.00253 1.42111e-17
4939.70011 1.49315e-17
4941.39770 1.45844e-17
4943.09529 1.35367e-17
4944.79288 1.21071e-17
4946.49047 9.39313e-18
4948.18805 7.52263e-18
4949.88564 9.49888e-18
4951.58323 1.38806e-17
4953.28082 1.66065e-17
4954.96836 1.69515e-17
4956.66595 1.61414e-17
4958.36354 1.50873e-17
4960.06113 1.44970e-17
4961.75871 1.43686e-17
4963.45630 1.47738e-17
4965.15389 1.58626e-17
4966.85148 1.64969e-17
4968.54907 1.62396e-17
4970.24665 1.63494e-17
4971.94424 1.66606e-17
4973.63179 1.63806e-17
4975.32937 1.57062e-17
4977.02696 1.47851e-17
4978.72455 1.39431e-17
4980.42214 1.38299e-17
4982.11973 1.36883e-17
4983.81731 1.32773e-17
4985.51490 1.35121e-17
4987.21249 1.44138e-17
4988.91008 1.53108e-17
4990.59762 1.60249e-17
4992.29521 1.62162e-17
4993.99280 1.57951e-17
4995.69039 1.51026e-17
4997.38797 1.41364e-17
4999.08556 1.37926e-17
5000.78315 1.45711e-17
5002.48074 1.48003e-17
5004.17833 1.47389e-17
5005.87592 1.46074e-17
5007.57350 1.41391e-17
5009.26105 1.37894e-17
5010.95863 1.43274e-17
5012.65622 1.48299e-17
5014.35381 1.58689e-17
5016.05140 1.68558e-17
5017.74899 1.65678e-17
5019.44657 1.56018e-17
5021.14416 1.49800e-17
5022.84175 1.47069e-17
5024.53934 1.45334e-17
5026.23693 1.43036e-17
5027.92447 1.39343e-17
5029.62206 1.40638e-17
5031.31965 1.47348e-17
5033.01723 1.53060e-17
5034.71482 1.55602e-17
5036.41241 1.57406e-17
5038.11000 1.55180e-17
5039.80759 1.52901e-17
5041.50518 1.52896e-17
5043.20276 1.55048e-17
5044.89031 1.60596e-17
5046.58789 1.62983e-17
5048.28548 1.49916e-17
5049.98307 1.37275e-17
5051.68066 1.36829e-17
5053.37825 1.44211e-17
5055.07584 1.52483e-17
5056.77342 1.60474e-17
5058.47101 1.58388e-17
5060.16860 1.47872e-17
5061.85614 1.40974e-17
5063.55373 1.39903e-17
5065.25132 1.37510e-17
5066.94891 1.37646e-17
5068.64650 1.42965e-17
5070.34408 1.47283e-17
5072.04167 1.47973e-17
5073.73926 1.51741e-17
5075.43685 1.54377e-17
5077.13444 1.53229e-17
5078.83202 1.56411e-17
5080.51957 1.63175e-17
5082.21716 1.62522e-17
5083.91474 1.58915e-17
5085.61233 1.58469e-17
5087.30992 1.60204e-17
5089.00751 1.60728e-17
5090.70510 1.61313e-17
5092.40268 1.62799e-17
5094.10027 1.62903e-17
5095.79786 1.55573e-17
5097.49545 1.46478e-17
5099.18299 1.43718e-17
5100.88058 1.39916e-17
5102.57817 1.41536e-17
5104.27576 1.57161e-17
5105.97334 1.74264e-17
5107.67093 1.77005e-17
5109.36852 1.76621e-17
5111.06611 1.69967e-17
5112.76370 1.54031e-17
5114.46128 1.45665e-17
5116.15887 1.49611e-17
5117.84642 1.54701e-17
5119.54400 1.59174e-17
5121.24159 1.65243e-17
5122.93918 1.67589e-17
5124.63677 1.67860e-17
5126.33436 1.65385e-17
5128.03194 1.63844e-17
5129.72953 1.64144e-17
5131.42712 1.64086e-17
5133.12471 1.66401e-17
5134.82230 1.75415e-17
5136.50984 1.77866e-17
5138.20743 1.71388e-17
5139.90502 1.68223e-17
5141.60260 1.67450e-17
5143.30019 1.61461e-17
5144.99778 1.59016e-17
5146.69537 1.62448e-17
5148.39296 1.67630e-17
5150.09054 1.72352e-17
5151.78813 1.73533e-17
5153.47568 1.73228e-17
5155.17326 1.75007e-17
5156.87085 1.76218e-17
5158.56844 1.72159e-17
5160.26603 1.70152e-17
5161.96362 1.69867e-17
5163.66120 1.67241e-17
5165.35879 1.61710e-17
5167.05638 1.60450e-17
5168.75397 1.64277e-17
5170.44151 1.65598e-17
5172.13910 1.65035e-17
5173.83669 1.67627e-17
5175.53428 1.68793e-17
5177.23186 1.66437e-17
5178.92945 1.63015e-17
5180.62704 1.66862e-17
5182.32463 1.72116e-17
5184.02222 1.70594e-17
5185.71980 1.65074e-17
5187.41739 1.64244e-17
5189.11498 1.66011e-17
5190.80252 1.71959e-17
5192.50011 1.83385e-17
5194.19770 1.88126e-17
5195.89529 1.85375e-17
5197.59288 1.80036e-17
5199.29046 1.74728e-17
5200.98805 1.72811e-17
5202.68564 1.72894e-17
5204.38323 1.70591e-17
5206.08082 1.71228e-17
5207.76836 1.77093e-17
5209.46595 1.84030e-17
5211.16354 1.87745e-17
5212.86112 1.90834e-17
5214.55871 1.91919e-17
5216.25630 1.89937e-17
5217.95389 1.87226e-17
5219.65148 1.81893e-17
5221.34906 1.81291e-17
5223.04665 1.88168e-17
5224.74424 1.95017e-17
5226.43178 1.94792e-17
5228.12937 1.94839e-17
5229.82696 1.96115e-17
5231.52455 1.92841e-17
5233.22214 1.92088e-17
5234.91972 1.94049e-17
5236.61731 1.97359e-17
5238.31490 1.96681e-17
5240.01249 1.97430e-17
5241.71008 2.00990e-17
5243.40767 2.02779e-17
5245.09521 1.99779e-17
5246.79280 1.95838e-17
5248.49038 1.95899e-17
5250.18797 1.90777e-17
5251.88556 1.82400e-17
5253.58315 1.79350e-17
5255.28074 1.82872e-17
5256.97833 1.90502e-17
5258.67591 2.00942e-17
5260.37350 2.09167e-17
5262.06104 2.08501e-17
5263.75863 2.06172e-17
5265.45622 2.06078e-17
5267.15381 2.05366e-17
5268.85140 2.08544e-17
5270.54899 2.12873e-17
5272.24657 2.13702e-17
5273.94416 2.13156e-17
5275.64175 2.17731e-17
5277.33934 2.19434e-17
5279.03693 2.14526e-17
5280.72447 2.09786e-17
5282.42206 2.06928e-17
5284.11965 2.07197e-17
5285.81723 2.05703e-17
5287.51482 2.05589e-17
5289.21241 2.06292e-17
5290.91000 2.07600e-17
5292.60759 2.07446e-17
5294.30517 2.10621e-17
5296.00276 2.12882e-17
5297.69030 2.07182e-17
5299.38789 1.97669e-17
5301.08548 1.91317e-17
5302.78307 1.92830e-17
5304.48066 1.99153e-17
5306.17825 2.04227e-17
5307.87583 2.03522e-17
5309.57342 1.99192e-17
5311.27101 1.94820e-17
5312.96860 1.88630e-17
5314.66619 1.86345e-17
5316.35373 1.92327e-17
5318.05132 1.96064e-17
5319.74891 1.96986e-17
5321.44649 2.07268e-17
5323.14408 2.15105e-17
5324.84167 2.10193e-17
5326.53926 2.04205e-17
5328.23685 1.96905e-17
5329.93443 1.88894e-17
5331.63202 1.86941e-17
5333.31957 1.89096e-17
5335.01715 1.91542e-17
5336.71474 1.94390e-17
5338.41233 1.94134e-17
5340.10992 1.99893e-17
5341.80751 2.08212e-17
5343.50509 2.12351e-17
5345.20268 2.10382e-17
5346.90027 2.09013e-17
5348.59786 2.06156e-17
5350.29545 2.05433e-17
5351.98299 2.07841e-17
5353.68058 2.08538e-17
5355.37817 2.04998e-17
5357.07575 2.02093e-17
5358.77334 2.02502e-17
5360.47093 1.97277e-17
5362.16852 1.94824e-17
5363.86611 2.04227e-17
5365.56369 2.13656e-17
5367.26128 2.14700e-17
5368.95887 2.14670e-17
5370.64641 2.13209e-17
5372.34400 2.06768e-17
5374.04159 2.05460e-17
5375.73918 2.04828e-17
5377.43677 2.04804e-17
5379.13435 2.07381e-17
5380.83194 2.07290e-17
5382.52953 2.01980e-17
5384.22712 1.98359e-17
5385.92471 1.94719e-17
5387.62229 1.90396e-17
5389.30984 1.87274e-17
5391.00743 1.85256e-17
5392.70501 1.90358e-17
5394.40260 1.99646e-17
5396.10019 2.04486e-17
5397.79778 2.09725e-17
5399.49537 2.12354e-17
5401.19295 2.08400e-17
5402.89054 1.97701e-17
5404.58813 1.89603e-17
5406.27567 1.84669e-17
5407.97326 1.84880e-17
5409.67085 1.86146e-17
5411.36844 1.86444e-17
5413.06603 1.86107e-17
5414.76361 1.87529e-17
5416.46120 1.88000e-17
5418.15879 1.83626e-17
5419.85638 1.83646e-17
5421.55397 1.84992e-17
5423.25155 1.82224e-17
5424.93910 1.80088e-17
5426.63669 1.81149e-17
5428.33427 1.76659e-17
5430.03186 1.73164e-17
5431.72945 1.74259e-17
5433.42704 1.74393e-17
5435.12463 1.75704e-17
5436.82221 1.78203e-17
5438.51980 1.77821e-17
5440.21739 1.79447e-17
5441.90493 1.87067e-17
5443.60252 1.89577e-17
5445.30011 1.83648e-17
5446.99770 1.77997e-17
5448.69529 1.76448e-17
5450.39287 1.70214e-17
5452.09046 1.65259e-17
5453.78805 1.71748e-17
5455.48564 1.79264e-17
5457.18323 1.77094e-17
5458.88082 1.76929e-17
5460.56836 1.80051e-17
5462.26595 1.83271e-17
5463.96353 1.89660e-17
5465.66112 2.02024e-17
5467.35871 2.06680e-17
5469.05630 2.05696e-17
5470.75389 1.99890e-17
5472.45148 1.97116e-17
5474.14906 1.93297e-17
5475.84665 1.90455e-17
5477.54424 1.89966e-17
5479.23178 1.86046e-17
5480.92937 1.78461e-17
5482.62696 1.77976e-17
5484.32455 1.80285e-17
5486.02214 1.77285e-17
5487.71972 1.79229e-17
5489.41731 1.83050e-17
5491.11490 1.80601e-17
5492.81249 1.78465e-17
5494.51008 1.77816e-17
5496.19762 1.80464e-17
5497.89521 1.80554e-17
5499.59279 1.75951e-17
5501.29038 1.75048e-17
5502.98797 1.82537e-17
5504.68556 1.86198e-17
5506.38315 1.87491e-17
5508.08074 1.91861e-17
5509.77832 1.91538e-17
5511.47591 1.84641e-17
5513.17350 1.87331e-17
5514.86104 1.91535e-17
5516.55863 1.87901e-17
5518.25622 1.79323e-17
5519.95381 1.78560e-17
5521.65140 1.79481e-17
5523.34898 1.76953e-17
5525.04657 1.74266e-17
5526.74416 1.82611e-17
5528.44175 1.91494e-17
5530.13934 1.91412e-17
5531.83692 1.94010e-17
5533.52447 1.98192e-17
5535.22206 1.96230e-17
5536.91964 1.87594e-17
5538.61723 1.85112e-17
5540.31482 1.81686e-17
5542.01241 1.71600e-17
5543.71000 1.61382e-17
5545.40758 1.63001e-17
5547.10517 1.68277e-17
5548.80276 1.73957e-17
5550.50035 1.79321e-17
5552.18789 1.77812e-17
5553.88548 1.78522e-17
5555.58307 1.73143e-17
5557.28066 1.68904e-17
5558.97824 1.70841e-17
5560.67583 1.72186e-17
5562.37342 1.69247e-17
5564.07101 1.73754e-17
5565.76860 1.80580e-17
5567.46618 1.76077e-17
5569.15373 1.69284e-17
5570.85132 1.66379e-17
5572.54890 1.62914e-17
5574.24649 1.57839e-17
5575.94408 1.56851e-17
5577.64167 1.63841e-17
5579.33926 1.75834e-17
5581.03684 1.89376e-17
5582.73443 1.91288e-17
5584.43202 1.87783e-17
5586.12961 1.82678e-17
5587.81715 1.76868e-17
5589.51474 1.69293e-17
5591.21233 1.64652e-17
5592.90992 1.58222e-17
5594.60750 1.59120e-17
5596.30509 1.58039e-17
5598.00268 1.60912e-17
5599.70027 1.69601e-17
5601.39786 1.73744e-17
5603.09544 1.69696e-17
5604.78299 1.69887e-17
5606.48058 1.69781e-17
5608.17816 1.65359e-17
5609.87575 1.61890e-17
5611.57334 1.58817e-17
5613.27093 1.55363e-17
5614.96852 1.54310e-17
5616.66610 1.49298e-17
5618.36369 1.49373e-17
5620.06128 1.49457e-17
5621.75887 1.47731e-17
5623.44641 1.46257e-17
5625.14400 1.46888e-17
5626.84159 1.47098e-17
5628.53918 1.48945e-17
5630.23676 1.48370e-17
5631.93435 1.44203e-17
5633.63194 1.44809e-17
5635.32953 1.43149e-17
5637.02712 1.38138e-17
5638.72470 1.41093e-17
5640.42229 1.46836e-17
5642.10984 1.47363e-17
5643.80742 1.48712e-17
5645.50501 1.49783e-17
5647.20260 1.44994e-17
5648.90019 1.44080e-17
5650.59778 1.38823e-17
5652.29536 1.28822e-17
5653.99295 1.22576e-17
5655.69054 1.23991e-17
5657.38813 1.28922e-17
5659.08572 1.42054e-17
5660.77326 1.52188e-17
5662.47085 1.56164e-17
5664.16844 1.55847e-17
5665.86602 1.53808e-17
5667.56361 1.46023e-17
5669.26120 1.37037e-17
5670.95879 1.28962e-17
5672.65638 1.25695e-17
5674.35397 1.25377e-17
5676.05155 1.31119e-17
5677.73910 1.37384e-17
5679.43668 1.36492e-17
5681.13427 1.33033e-17
5682.83186 1.28430e-17
5684.52945 1.26273e-17
5686.22704 1.30450e-17
5687.92463 1.40346e-17
5689.62221 1.43411e-17
5691.31980 1.45263e-17
5693.01739 1.48280e-17
5694.71498 1.48262e-17
5696.40252 1.42551e-17
5698.10011 1.37584e-17
5699.79770 1.30694e-17
5701.49528 1.26501e-17
5703.19287 1.25689e-17
5704.89046 1.20300e-17
5706.58805 1.18440e-17
5708.28564 1.24096e-17
5709.98323 1.27348e-17
5711.68081 1.27842e-17
5713.36836 1.35357e-17
5715.06594 1.38602e-17
5716.76353 1.33091e-17
5718.46112 1.29326e-17
5720.15871 1.34812e-17
5721.85630 1.39058e-17
5723.55389 1.41034e-17
5725.25147 1.48603e-17
5726.94906 1.52580e-17
5728.64665 1.50221e-17
5730.34424 1.47705e-17
5732.03178 1.46624e-17
5733.72937 1.47218e-17
5735.42696 1.51192e-17
5737.12455 1.51147e-17
5738.82213 1.55595e-17
5740.51972 1.57522e-17
5742.21731 1.49510e-17
5743.91490 1.49034e-17
5745.61249 1.57864e-17
5747.31007 1.60068e-17
5749.00766 1.58760e-17
5750.69521 1.57428e-17
5752.39279 1.53725e-17
5754.09038 1.49471e-17
5755.78797 1.46639e-17
5757.48556 1.49010e-17
5759.18315 1.56045e-17
5760.88073 1.58168e-17
5762.57832 1.54755e-17
5764.27591 1.57333e-17
5765.97350 1.54283e-17
5767.66104 1.50991e-17
5769.35863 1.51024e-17
5771.05622 1.51262e-17
5772.75381 1.46045e-17
5774.45139 1.49414e-17
5776.14898 1.51716e-17
5777.84657 1.49437e-17
5779.54416 1.48468e-17
5781.24175 1.48677e-17
5782.93933 1.52443e-17
5784.63692 1.61411e-17
5786.32447 1.62288e-17
5788.02205 1.62870e-17
5789.71964 1.70663e-17
5791.41723 1.71198e-17
5793.11482 1.56069e-17
5794.81241 1.49662e-17
5796.50999 1.54589e-17
5798.20758 1.58176e-17
5799.90517 1.71496e-17
5801.60276 1.83951e-17
5803.30035 1.82569e-17
5804.98789 1.72914e-17
5806.68548 1.71055e-17
5808.38307 1.56359e-17
5810.08065 1.47957e-17
5811.77824 1.51416e-17
5813.47583 1.56361e-17
5815.17342 1.54448e-17
5816.87101 1.62094e-17
5818.56859 1.74670e-17
5820.26618 1.77437e-17
5821.96377 1.84429e-17
5823.65131 1.92443e-17
5825.34890 1.91137e-17
5827.04649 1.83778e-17
5828.74408 1.80359e-17
5830.44167 1.72261e-17
5832.13925 1.64034e-17
5833.83684 1.65146e-17
5835.53443 1.71342e-17
5837.23202 1.80268e-17
5838.92961 1.89020e-17
5840.61715 1.95164e-17
5842.31474 1.96878e-17
5844.01233 1.93055e-17
5845.70991 1.83191e-17
5847.40750 1.72658e-17
5849.10509 1.69100e-17
5850.80268 1.71060e-17
5852.50027 1.72355e-17
5854.19785 1.73199e-17
5855.89544 1.77443e-17
5857.59303 1.83832e-17
5859.28057 1.87886e-17
5860.97816 1.87409e-17
5862.67575 1.81869e-17
5864.37334 1.73939e-17
5866.07093 1.70214e-17
5867.76851 1.72929e-17
5869.46610 1.77887e-17
5871.16369 1.82430e-17
5872.86128 1.86816e-17
5874.55887 1.90417e-17
5876.24641 1.90945e-17
5877.94400 1.87715e-17
5879.64159 1.84126e-17
5881.33917 1.82558e-17
5883.03676 1.80721e-17
5884.73435 1.77069e-17
5886.43194 1.74504e-17
5888.12953 1.75533e-17
5889.82712 1.79354e-17
5891.52470 1.84597e-17
5893.22229 1.89370e-17
5894.90983 1.91791e-17
5896.60742 1.92172e-17
5898.30501 1.91543e-17
5900.00260 1.89142e-17
5901.70019 1.83851e-17
5903.39777 1.78819e-17
5905.09536 1.78525e-17
5906.79295 1.81952e-17
5908.49054 1.85698e-17
5910.18813 1.87187e-17
5911.88572 1.83960e-17
5913.57326 1.78640e-17
5915.27085 1.77922e-17
5916.96843 1.81413e-17
5918.66602 1.82283e-17
5920.36361 1.79159e-17
5922.06120 1.76571e-17
5923.75879 1.76301e-17
5925.45638 1.76438e-17
5927.15396 1.77061e-17
5928.85155 1.81934e-17
5930.54914 1.90660e-17
5932.23668 1.93916e-17
5933.93427 1.87252e-17
5935.63186 1.79180e-17
5937.32945 1.76079e-17
5939.02704 1.75718e-17
5940.72462 1.75964e-17
5942.42221 1.76657e-17
5944.11980 1.77537e-17
5945.81739 1.77751e-17
5947.51498 1.76772e-17
5949.20252 1.78319e-17
5950.90011 1.85948e-17
5952.59770 1.92999e-17
5954.29528 1.91349e-17
5955.99287 1.85059e-17
5957.69046 1.81471e-17
5959.38805 1.80014e-17
5961.08564 1.77494e-17
5962.78322 1.75187e-17
5964.48081 1.76019e-17
5966.17840 1.79127e-17
5967.86594 1.81678e-17
5969.56353 1.82691e-17
5971.26112 1.82364e-17
5972.95871 1.81158e-17
5974.65630 1.79834e-17
5976.35388 1.78890e-17
5978.05147 1.78575e-17
5979.74906 1.78278e-17
5981.44665 1.76051e-17
5983.14424 1.71869e-17
5984.83178 1.69023e-17
5986.52937 1.68949e-17
5988.22696 1.69183e-17
5989.92454 1.68492e-17
5991.62213 1.68795e-17
5993.31972 1.71298e-17
5995.01731 1.75592e-17
5996.71490 1.80602e-17
5998.41248 1.82459e-17
6000.11007 1.78359e-17
6001.80766 1.71716e-17
6003.49520 1.66345e-17
6005.19279 1.63225e-17
6006.89038 1.62717e-17
6008.58797 1.62650e-17
6010.28556 1.60411e-17
6011.98314 1.57986e-17
6013.68073 1.58413e-17
6015.37832 1.60882e-17
6017.07591 1.63320e-17
6018.77350 1.64892e-17
6020.47108 1.65273e-17
6022.15863 1.64199e-17
6023.85622 1.61534e-17
6025.55380 1.58225e-17
6027.25139 1.55937e-17
6028.94898 1.55000e-17
6030.64657 1.54650e-17
6032.34416 1.54417e-17
6034.04174 1.53767e-17
6035.73933 1.53341e-17
6037.43692 1.56274e-17
6039.12446 1.60248e-17
6040.82205 1.53203e-17
6042.51964 1.33540e-17
6044.21723 1.20204e-17
6045.91482 1.23948e-17
6047.61240 1.35675e-17
6049.30999 1.47389e-17
6051.00758 1.56074e-17
6052.70517 1.59353e-17
6054.40276 1.58455e-17
6056.10034 1.55183e-17
6057.78789 1.49229e-17
6059.48548 1.40816e-17
6061.18306 1.34278e-17
6062.88065 1.33664e-17
6064.57824 1.36082e-17
6066.27583 1.37470e-17
6067.97342 1.38030e-17
6069.67100 1.38752e-17
6071.36859 1.41604e-17
6073.06618 1.49005e-17
6074.76377 1.56145e-17
6076.45131 1.55375e-17
6078.14890 1.48402e-17
6079.84649 1.41632e-17
6081.54408 1.38410e-17
6083.24166 1.40325e-17
6084.93925 1.45830e-17
6086.63684 1.50778e-17
6088.33443 1.52375e-17
6090.03202 1.49017e-17
6091.72961 1.42733e-17
6093.42719 1.40295e-17
6095.11474 1.43990e-17
6096.81232 1.49167e-17
6098.50991 1.52461e-17
6100.20750 1.53102e-17
6101.90509 1.50178e-17
6103.60268 1.42149e-17
6105.30026 1.29877e-17
6106.99785 1.20675e-17
6108.69544 1.19663e-17
6110.39303 1.22850e-17
6112.08057 1.26158e-17
6113.77816 1.29187e-17
6115.47575 1.31731e-17
6117.17334 1.34293e-17
6118.87092 1.37457e-17
6120.56851 1.39336e-17
6122.26610 1.37870e-17
6123.96369 1.35208e-17
6125.66128 1.34518e-17
6127.35887 1.33250e-17
6129.05645 1.27245e-17
6130.74400 1.20570e-17
6132.44158 1.20142e-17
6134.13917 1.25713e-17
6135.83676 1.33824e-17
6137.53435 1.39626e-17
6139.23194 1.36952e-17
6140.92953 1.28252e-17
6142.62711 1.23084e-17
6144.32470 1.23053e-17
6146.02229 1.22045e-17
6147.70983 1.19063e-17
6149.40742 1.18720e-17
6151.10501 1.22472e-17
6152.80260 1.28005e-17
6154.50019 1.32758e-17
6156.19777 1.33429e-17
6157.89536 1.28541e-17
6159.59295 1.20242e-17
6161.29054 1.11701e-17
6162.98813 1.08842e-17
6164.68571 1.14784e-17
6166.37326 1.22373e-17
6168.07085 1.25242e-17
6169.76843 1.25036e-17
6171.46602 1.23817e-17
6173.16361 1.20833e-17
6174.86120 1.15631e-17
6176.55879 1.10812e-17
6178.25637 1.09105e-17
6179.95396 1.09335e-17
6181.65155 1.09466e-17
6183.34914 1.09106e-17
6185.03668 1.08246e-17
6186.73427 1.08132e-17
6188.43186 1.10492e-17
6190.12945 1.14309e-17
6191.82703 1.17294e-17
6193.52462 1.18351e-17
6195.22221 1.17149e-17
6196.91980 1.14313e-17
6198.61739 1.11034e-17
6200.31497 1.09314e-17
6202.01256 1.12099e-17
6203.70011 1.18010e-17
6205.39769 1.20524e-17
6207.09528 1.17804e-17
6208.79287 1.14533e-17
6210.49046 1.13564e-17
6212.18805 1.15210e-17
6213.88563 1.18249e-17
6215.58322 1.17080e-17
6217.28081 1.09615e-17
6218.97840 1.04141e-17
6220.66594 1.06173e-17
6222.36353 1.10728e-17
6224.06112 1.13153e-17
6225.75871 1.12214e-17
6227.45629 1.07630e-17
6229.15388 1.03649e-17
6230.85147 1.04407e-17
6232.54906 1.08953e-17
6234.24665 1.15255e-17
6235.94423 1.18386e-17
6237.64182 1.13278e-17
6239.32937 1.04703e-17
6241.02695 1.00189e-17
6242.72454 9.94782e-18
6244.42213 9.96315e-18
6246.11972 9.89239e-18
6247.81731 9.58991e-18
6249.51489 9.21289e-18
6251.21248 9.10577e-18
6252.91007 9.34727e-18
6254.60766 9.80577e-18
6256.29520 1.04107e-17
6257.99279 1.11736e-17
6259.69038 1.18017e-17
6261.38797 1.16547e-17
6263.08555 1.07441e-17
6264.78314 9.96288e-18
6266.48073 9.78643e-18
6268.17832 9.98600e-18
6269.87591 1.03799e-17
6271.57349 1.08781e-17
6273.27108 1.13473e-17
6274.95863 1.16352e-17
6276.65621 1.16504e-17
6278.35380 1.14217e-17
6280.05139 1.10443e-17
6281.74898 1.08278e-17
6283.44657 1.10097e-17
6285.14415 1.12923e-17
6286.84174 1.13661e-17
6288.53933 1.14459e-17
6290.23692 1.17840e-17
6291.93451 1.22182e-17
6293.62205 1.25220e-17
6295.31964 1.26789e-17
6297.01723 1.27233e-17
6298.71481 1.27500e-17
6300.41240 1.28946e-17
6302.10999 1.30120e-17
6303.80758 1.28085e-17
6305.50517 1.25284e-17
6307.20275 1.27322e-17
6308.90034 1.32057e-17
6310.58789 1.32024e-17
6312.28547 1.26876e-17
6313.98306 1.22085e-17
6315.68065 1.20053e-17
6317.37824 1.20245e-17
6319.07583 1.21881e-17
6320.77341 1.23611e-17
6322.47100 1.24193e-17
6324.16859 1.22539e-17
6325.86618 1.19269e-17
6327.56377 1.18593e-17
6329.25131 1.22541e-17
6330.94890 1.27655e-17
6332.64649 1.30991e-17
6334.34407 1.31316e-17
6336.04166 1.28511e-17
6337.73925 1.26860e-17
6339.43684 1.29892e-17
6341.13443 1.36177e-17
6342.83202 1.43337e-17
6344.52960 1.45415e-17
6346.22719 1.37251e-17
6347.91473 1.25623e-17
6349.61232 1.19306e-17
6351.30991 1.19712e-17
6353.00750 1.26085e-17
6354.70509 1.33716e-17
6356.40268 1.36342e-17
6358.10026 1.34883e-17
6359.79785 1.33421e-17
6361.49544 1.33090e-17
6363.19303 1.33845e-17
6364.89062 1.34162e-17
6366.57816 1.31107e-17
6368.27575 1.26256e-17
6369.97334 1.25134e-17
6371.67092 1.28095e-17
6373.36851 1.30113e-17
6375.06610 1.30055e-17
6376.76369 1.31618e-17
6378.46128 1.35746e-17
6380.15886 1.39582e-17
6381.85645 1.41145e-17
6383.54399 1.39595e-17
6385.24158 1.35381e-17
6386.93917 1.32005e-17
6388.63676 1.32066e-17
6390.33435 1.35781e-17
6392.03194 1.41921e-17
6393.72952 1.43667e-17
6395.42711 1.36241e-17
6397.12470 1.26406e-17
6398.82229 1.21283e-17
6400.51988 1.23487e-17
6402.20742 1.33900e-17
6403.90501 1.43004e-17
6405.60260 1.40269e-17
6407.30018 1.30465e-17
6408.99777 1.22165e-17
6410.69536 1.18638e-17
6412.39295 1.21517e-17
6414.09054 1.27671e-17
6415.78812 1.31661e-17
6417.48571 1.32626e-17
6419.17326 1.32079e-17
6420.87084 1.31399e-17
6422.56843 1.32122e-17
6424.26602 1.34241e-17
6425.96361 1.36277e-17
6427.66120 1.37748e-17
6429.35878 1.39466e-17
6431.05637 1.40226e-17
6432.75396 1.35965e-17
6434.45155 1.27700e-17
6436.14914 1.24346e-17
6437.83668 1.29076e-17
6439.53427 1.34435e-17
6441.23186 1.35539e-17
6442.92944 1.33496e-17
6444.62703 1.29460e-17
6446.32462 1.24565e-17
6448.02221 1.20286e-17
6449.71980 1.18481e-17
6451.41738 1.20304e-17
6453.11497 1.23672e-17
6454.81256 1.26457e-17
6456.50010 1.30752e-17
6458.19769 1.38456e-17
6459.89528 1.44094e-17
6461.59287 1.41794e-17
6463.29046 1.35170e-17
6464.98804 1.29929e-17
6466.68563 1.27802e-17
6468.38322 1.29367e-17
6470.08081 1.31466e-17
6471.77840 1.29349e-17
6473.46594 1.24186e-17
6475.16353 1.19873e-17
6476.86112 1.18969e-17
6478.55870 1.23730e-17
6480.25629 1.30463e-17
6481.95388 1.30401e-17
6483.65147 1.24253e-17
6485.34906 1.21873e-17
6487.04664 1.25828e-17
6488.74423 1.30467e-17
6490.44182 1.32656e-17
6492.12936 1.32081e-17
6493.82695 1.29695e-17
6495.52454 1.29665e-17
6497.22213 1.33460e-17
6498.91972 1.35800e-17
6500.61730 1.33750e-17
6502.31489 1.31488e-17
6504.01248 1.31939e-17
6505.71007 1.32436e-17
6507.40766 1.31082e-17
6509.10524 1.31485e-17
6510.79279 1.36354e-17
6512.49038 1.40419e-17
6514.18796 1.38472e-17
6515.88555 1.32975e-17
6517.58314 1.27599e-17
6519.28073 1.24915e-17
6520.97832 1.27116e-17
6522.67590 1.30784e-17
6524.37349 1.30741e-17
6526.07108 1.28985e-17
6527.75862 1.30187e-17
6529.45621 1.33359e-17
6531.15380 1.34995e-17
6532.85139 1.34606e-17
6534.54898 1.33340e-17
6536.24656 1.31676e-17
6537.94415 1.29767e-17
6539.64174 1.27974e-17
6541.33933 1.26620e-17
6543.03692 1.26157e-17
6544.73451 1.27527e-17
6546.42205 1.29520e-17
6548.11964 1.27438e-17
6549.81722 1.21139e-17
6551.51481 1.18663e-17
6553.21240 1.23583e-17
6554.90999 1.30008e-17
6556.60758 1.33494e-17
6558.30517 1.33440e-17
6560.00275 1.30138e-17
6561.70034 1.27514e-17
6563.39793 1.28373e-17
6565.08547 1.27732e-17
6566.78306 1.21609e-17
6568.48065 1.16291e-17
6570.17824 1.17910e-17
6571.87583 1.22865e-17
6573.57341 1.26356e-17
6575.27100 1.26880e-17
6576.96859 1.23727e-17
6578.66618 1.21034e-17
6580.36377 1.24229e-17
6582.05131 1.30598e-17
6583.74890 1.34453e-17
6585.44648 1.35100e-17
6587.14407 1.34095e-17
6588.84166 1.31847e-17
6590.53925 1.28326e-17
6592.23684 1.24583e-17
6593.93443 1.22444e-17
6595.63201 1.21881e-17
6597.32960 1.21000e-17
6599.02719 1.20637e-17
6600.71473 1.24601e-17
6602.41232 1.33268e-17
6604.10991 1.42940e-17
6605.80750 1.49783e-17
6607.50509 1.49101e-17
6609.20267 1.40486e-17
6610.90026 1.32877e-17
6612.59785 1.31465e-17
6614.29544 1.30388e-17
6615.99303 1.25974e-17
6617.69061 1.22741e-17
6619.37816 1.24069e-17
6621.07575 1.28473e-17
6622.77333 1.34015e-17
6624.47092 1.38375e-17
6626.16851 1.39516e-17
6627.86610 1.37871e-17
6629.56369 1.34531e-17
6631.26127 1.30953e-17
6632.95886 1.28643e-17
6634.65645 1.27701e-17
6636.35404 1.27735e-17
6638.04158 1.28191e-17
6639.73917 1.28424e-17
6641.43676 1.28564e-17
6643.13435 1.28995e-17
6644.83193 1.30335e-17
6646.52952 1.33543e-17
6648.22711 1.36700e-17
6649.92470 1.35766e-17
6651.62229 1.31670e-17
6653.31987 1.29576e-17
6655.00742 1.30913e-17
6656.70501 1.33181e-17
6658.40259 1.35326e-17
6660.10018 1.38201e-17
6661.79777 1.41062e-17
6663.49536 1.40567e-17
6665.19295 1.36270e-17
6666.89053 1.33659e-17
6668.58812 1.35433e-17
6670.28571 1.36957e-17
6671.98330 1.35249e-17
6673.67084 1.32908e-17
6675.36843 1.32155e-17
6677.06602 1.33373e-17
6678.76361 1.36487e-17
6680.46119 1.39574e-17
6682.15878 1.40737e-17
6683.85637 1.39897e-17
6685.55396 1.37464e-17
6687.25155 1.34928e-17
6688.94913 1.33910e-17
6690.63668 1.34397e-17
6692.33427 1.35861e-17
6694.03185 1.36992e-17
6695.72944 1.36195e-17
6697.42703 1.34073e-17
6699.12462 1.32267e-17
6700.82221 1.30724e-17
6702.51979 1.28613e-17
6704.21738 1.26199e-17
6705.91497 1.24089e-17
6707.61256 1.24075e-17
6709.30010 1.29251e-17
6710.99769 1.37410e-17
6712.69528 1.40808e-17
6714.39287 1.37629e-17
6716.09045 1.33525e-17
6717.78804 1.31518e-17
6719.48563 1.30683e-17
6721.18322 1.30644e-17
6722.88081 1.31678e-17
6724.57839 1.33404e-17
6726.27598 1.34353e-17
6727.96353 1.33535e-17
6729.66111 1.31400e-17
6731.35870 1.28541e-17
6733.05629 1.25245e-17
6734.75388 1.22012e-17
6736.45147 1.20702e-17
6738.14905 1.22647e-17
6739.84664 1.24669e-17
6741.54423 1.23463e-17
6743.24182 1.21907e-17
6744.92936 1.23723e-17
6746.62695 1.26270e-17
6748.32454 1.25557e-17
6750.02213 1.23949e-17
6751.71971 1.25647e-17
6753.41730 1.28759e-17
6755.11489 1.29245e-17
6756.81248 1.26375e-17
6758.51007 1.20699e-17
6760.20766 1.15929e-17
6761.90524 1.18210e-17
6763.59279 1.25361e-17
6765.29037 1.28319e-17
6766.98796 1.25850e-17
6768.68555 1.24475e-17
6770.38314 1.25578e-17
6772.08073 1.24601e-17
6773.77832 1.20449e-17
6775.47590 1.16576e-17
6777.17349 1.15212e-17
6778.87108 1.16767e-17
6780.56867 1.20945e-17
6782.25621 1.25811e-17
6783.95380 1.29634e-17
6785.65139 1.31905e-17
6787.34897 1.32331e-17
6789.04656 1.30558e-17
6790.74415 1.26917e-17
6792.44174 1.24827e-17
6794.13933 1.27008e-17
6795.83692 1.29688e-17
6797.53450 1.28786e-17
6799.22205 1.26241e-17
6800.91963 1.24757e-17
6802.61722 1.23989e-17
6804.31481 1.23158e-17
6806.01240 1.20033e-17
6807.70999 1.11928e-17
6809.40758 1.03871e-17
6811.10516 1.03827e-17
6812.80275 1.09608e-17
6814.50034 1.13978e-17
6816.19793 1.15191e-17
6817.88547 1.14876e-17
6819.58306 1.12831e-17
6821.28065 1.07465e-17
6822.97824 1.01613e-17
6824.67582 1.02279e-17
6826.37341 1.09558e-17
6828.07100 1.15457e-17
6829.76859 1.16282e-17
6831.46618 1.14359e-17
6833.16376 1.11511e-17
6834.86135 1.09095e-17
6836.54890 1.08025e-17
6838.24648 1.07680e-17
6839.94407 1.07386e-17
6841.64166 1.06458e-17
6843.33925 1.04665e-17
6845.03684 1.04779e-17
6846.73442 1.04893e-17
6848.43201 1.05007e-17
6850.12960 1.05121e-17
6851.82719 1.05235e-17
6853.51473 1.05349e-17
6855.21232 1.05463e-17
6856.90991 1.05577e-17
6858.60750 1.05690e-17
6860.30508 1.05804e-17
6862.00267 1.05918e-17
6863.70026 1.06032e-17
6865.39785 1.06146e-17
6867.09544 1.06260e-17
6868.79302 1.06374e-17
6870.49061 1.06488e-17
6872.17816 1.06602e-17
6873.87574 1.06715e-17
6875.57333 1.06829e-17
6877.27092 1.06943e-17
6878.96851 1.07057e-17
6880.66610 1.07171e-17
6882.36368 1.07285e-17
6884.06127 1.07398e-17
6885.75886 1.07512e-17
6887.45645 1.07626e-17
6889.15404 1.07740e-17
6890.84158 1.07854e-17
6892.53917 1.07967e-17
6894.23676 1.08081e-17
6895.93434 1.08195e-17
6897.63193 1.08309e-17
6899.32952 1.08422e-17
6901.02711 1.08536e-17
6902.72470 1.08650e-17
6904.42228 1.08764e-17
6906.11987 1.08877e-17
6907.81746 1.08991e-17
6909.50500 1.09105e-17
6911.20259 1.09218e-17
6912.90018 1.09332e-17
6914.59777 1.09446e-17
6916.29536 1.09559e-17
6917.99294 1.09673e-17
6919.69053 1.09787e-17
6921.38812 1.09900e-17
6923.08571 1.10014e-17
6924.78330 1.10128e-17
6926.47084 1.10241e-17
6928.16843 1.10355e-17
6929.86602 1.10468e-17
6931.56360 1.10582e-17
6933.26119 1.10696e-17
6934.95878 1.10809e-17
6936.65637 1.10923e-17
6938.35396 1.14025e-17
6940.05154 1.16118e-17
6941.74913 1.17066e-17
6943.44672 1.16593e-17
6945.13426 1.14781e-17
6946.83185 1.12112e-17
6948.52944 1.09044e-17
6950.22703 1.05602e-17
6951.92462 1.02465e-17
6953.62220 1.02433e-17
6955.31979 1.06558e-17
6957.01738 1.10098e-17
6958.71497 1.09472e-17
6960.41256 1.07218e-17
6962.10010 1.05974e-17
6963.79769 1.06059e-17
6965.49528 1.07476e-17
6967.19286 1.09906e-17
6968.89045 1.12763e-17
6970.58804 1.14102e-17
6972.28563 1.12037e-17
6973.98322 1.08014e-17
6975.68081 1.04379e-17
6977.37839 1.02637e-17
6979.07598 1.04013e-17
6980.76352 1.06806e-17
6982.46111 1.07791e-17
6984.15870 1.07843e-17
6985.85629 1.10238e-17
6987.55388 1.13804e-17
6989.25146 1.14310e-17
6990.94905 1.12148e-17
6992.64664 1.11646e-17
6994.34423 1.13206e-17
6996.04182 1.13036e-17
6997.73941 1.10930e-17
6999.42695 1.11391e-17
7001.12454 1.15153e-17
7002.82212 1.16910e-17
7004.51971 1.14624e-17
7006.21730 1.12718e-17
7007.91489 1.13544e-17
7009.61248 1.14409e-17
7011.31007 1.13416e-17
7013.00765 1.10767e-17
7014.70524 1.07156e-17
7016.39278 1.05839e-17
7018.09037 1.09013e-17
7019.78796 1.11441e-17
7021.48555 1.08348e-17
7023.18314 1.04436e-17
7024.88073 1.05090e-17
7026.57831 1.08422e-17
7028.27590 1.11268e-17
7029.97349 1.13983e-17
7031.67108 1.17612e-17
7033.36867 1.20421e-17
7035.05621 1.20095e-17
7036.75380 1.17290e-17
7038.45139 1.13689e-17
7040.14897 1.12077e-17
7041.84656 1.16049e-17
7043.54415 1.22439e-17
7045.24174 1.23512e-17
7046.93933 1.18714e-17
7048.63691 1.13271e-17
7050.33450 1.09765e-17
7052.03209 1.08289e-17
7053.71963 1.08991e-17
7055.41722 1.11860e-17
7057.11481 1.15642e-17
7058.81240 1.17279e-17
7060.50999 1.15748e-17
7062.20757 1.13971e-17
7063.90516 1.13858e-17
7065.60275 1.15000e-17
7067.30034 1.16510e-17
7068.99793 1.15446e-17
7070.68547 1.10357e-17
7072.38306 1.06721e-17
7074.08065 1.08686e-17
7075.77823 1.10306e-17
7077.47582 1.06201e-17
7079.17341 1.01891e-17
7080.87100 1.03385e-17
7082.56859 1.08247e-17
7084.26617 1.12671e-17
7085.96376 1.15703e-17
7087.66135 1.17057e-17
7089.34889 1.16838e-17
7091.04648 1.15427e-17
7092.74407 1.14254e-17
7094.44166 1.15144e-17
7096.13925 1.16977e-17
7097.83683 1.17133e-17
7099.53442 1.15041e-17
7101.23201 1.11451e-17
7102.92960 1.07162e-17
7104.62719 1.02979e-17
7106.32477 1.00185e-17
7108.01232 1.00567e-17
7109.70991 1.03454e-17
7111.40749 1.05149e-17
7113.10508 1.04320e-17
7114.80267 1.03119e-17
7116.50026 1.03081e-17
7118.19785 1.04907e-17
7119.89543 1.08402e-17
7121.59302 1.10792e-17
7123.29061 1.10666e-17
7124.97815 1.11369e-17
7126.67574 1.14816e-17
7128.37333 1.16301e-17
7130.07092 1.12542e-17
7131.76851 1.09060e-17
7133.46609 1.10771e-17
7135.16368 1.14388e-17
7136.86127 1.15943e-17
7138.55886 1.13609e-17
7140.25645 1.06330e-17
7141.94399 9.84644e-18
7143.64158 9.55542e-18
7145.33917 9.61939e-18
7147.03675 9.66998e-18
7148.73434 9.79747e-18
7150.43193 1.02460e-17
7152.12952 1.08131e-17
7153.82711 1.11082e-17
7155.52469 1.10353e-17
7157.22228 1.06649e-17
7158.91987 1.02238e-17
7160.61746 1.00607e-17
7162.30500 1.02741e-17
7164.00259 1.07346e-17
7165.70018 1.12185e-17
7167.39777 1.13617e-17
7169.09535 1.11357e-17
7170.79294 1.10574e-17
7172.49053 1.12580e-17
7174.18812 1.11213e-17
7175.88571 1.04521e-17
7177.58330 9.99016e-18
7179.28088 1.01530e-17
7180.96843 1.04707e-17
7182.66601 1.05638e-17
7184.36360 1.04064e-17
7186.06119 1.00476e-17
7187.75878 9.90541e-18
7189.45637 1.03087e-17
7191.15395 1.07897e-17
7192.85154 1.08543e-17
7194.54913 1.05617e-17
7196.24672 1.00751e-17
7197.93426 9.78566e-18
7199.63185 1.01087e-17
7201.32944 1.06627e-17
7203.02703 1.08419e-17
7204.72461 1.06943e-17
7206.42220 1.04938e-17
7208.11979 1.04424e-17
7209.81738 1.07354e-17
7211.51497 1.11756e-17
7213.21256 1.13155e-17
7214.90010 1.11221e-17
7216.59769 1.08717e-17
7218.29527 1.06407e-17
7219.99286 1.03340e-17
7221.69045 1.00016e-17
7223.38804 9.83633e-18
7225.08563 9.89055e-18
7226.78322 1.00409e-17
7228.48080 1.01815e-17
7230.17839 1.02309e-17
7231.87598 1.01625e-17
7233.56352 1.00798e-17
7235.26111 1.00529e-17
7236.95870 1.00408e-17
7238.65629 1.00129e-17
7240.35388 9.97378e-18
7242.05146 9.93111e-18
7243.74905 9.90781e-18
7245.44664 9.92167e-18
7247.14423 9.98964e-18
7248.84182 1.01164e-17
7250.52936 1.01265e-17
7252.22695 9.85372e-18
7253.92454 9.62247e-18
7255.62212 9.82772e-18
7257.31971 1.02543e-17
7259.01730 1.05225e-17
7260.71489 1.06188e-17
7262.41248 1.06544e-17
7264.11006 1.06372e-17
7265.80765 1.05422e-17
7267.50524 1.04117e-17
7269.19278 1.03285e-17
7270.89037 1.02492e-17
7272.58796 1.00384e-17
7274.28555 9.74445e-18
7275.98314 9.57296e-18
7277.68072 9.59513e-18
7279.37831 9.73611e-18
7281.07590 9.95818e-18
7282.77349 1.02740e-17
7284.47108 1.06288e-17
7286.16866 1.08715e-17
7287.85621 1.09219e-17
7289.55380 1.08315e-17
7291.25138 1.06692e-17
7292.94897 1.05218e-17
7294.64656 1.04662e-17
7296.34415 1.05434e-17
7298.04174 1.07515e-17
7299.73932 1.09861e-17
7301.43691 1.11347e-17
7303.13450 1.10183e-17
7304.83209 1.05255e-17
7306.51963 1.01270e-17
7308.21722 1.03040e-17
7309.91481 1.06577e-17
7311.61240 1.06420e-17
7313.30998 1.03309e-17
7315.00757 9.95818e-18
7316.70516 9.63317e-18
7318.40275 9.43513e-18
7320.10034 9.38530e-18
7321.79792 9.46631e-18
7323.48547 9.59923e-18
7325.18306 9.66759e-18
7326.88064 9.66372e-18
7328.57823 9.66542e-18
7330.27582 9.66483e-18
7331.97341 9.58013e-18
7333.67100 9.46539e-18
7335.36858 9.49473e-18
7337.06617 9.76559e-18
7338.76376 1.03149e-17
7340.46135 1.09669e-17
7342.14889 1.11752e-17
7343.84648 1.07565e-17
7345.54407 1.02729e-17
7347.24166 1.00622e-17
7348.93924 9.82453e-18
7350.63683 9.42607e-18
7352.33442 9.32451e-18
7354.03201 9.77179e-18
7355.72960 1.01409e-17
7357.42718 9.92388e-18
7359.12477 9.54821e-18
7360.81232 9.46523e-18
7362.50990 9.59526e-18
7364.20749 9.79379e-18
7365.90508 9.99708e-18
7367.60267 1.01388e-17
7369.30026 1.02071e-17
7370.99784 1.02224e-17
7372.69543 1.00635e-17
7374.39302 9.57802e-18
7376.09061 9.01591e-18
7377.77815 8.77606e-18
7379.47574 8.92834e-18
7381.17333 9.38899e-18
7382.87092 9.83946e-18
7384.56850 9.77965e-18
7386.26609 9.32160e-18
7387.96368 9.08494e-18
7389.66127 9.24410e-18
7391.35886 9.54083e-18
7393.05644 9.80215e-18
7394.75403 9.92397e-18
7396.44158 9.87791e-18
7398.13916 9.79022e-18
7399.83675 9.72468e-18
7401.53434 9.61913e-18
7403.23193 9.42644e-18
7404.92952 9.08720e-18
7406.62710 8.64037e-18
7408.32469 8.44020e-18
7410.02228 8.71860e-18
7411.71987 9.22218e-18
7413.40741 9.68399e-18
7415.10500 1.00878e-17
7416.80259 1.03983e-17
7418.50018 1.02647e-17
7420.19776 9.41633e-18
7421.89535 8.06036e-18
7423.59294 6.52156e-18
7425.29053 5.72687e-18
7426.98812 6.64423e-18
7428.68571 8.35065e-18
7430.38329 9.32418e-18
7432.07084 9.49327e-18
7433.76842 9.36418e-18
7435.46601 9.21397e-18
7437.16360 9.25591e-18
7438.86119 9.52700e-18
7440.55878 9.92822e-18
7442.25637 1.02654e-17
7443.95395 1.02658e-17
7445.65154 9.93018e-18
7447.34913 9.53258e-18
7449.04672 9.23134e-18
7450.74431 9.05647e-18
7452.43185 8.98330e-18
7454.12944 8.86195e-18
7455.82703 8.68939e-18
7457.52461 8.79002e-18
7459.22220 9.23299e-18
7460.91979 9.49469e-18
7462.61738 9.26191e-18
7464.31497 8.83971e-18
7466.01255 8.49246e-18
7467.71014 8.21404e-18
7469.39768 8.01371e-18
7471.09527 8.01095e-18
7472.79286 8.27948e-18
7474.49045 8.72806e-18
7476.18804 9.22953e-18
7477.88563 9.54424e-18
7479.58321 9.44955e-18
7481.28080 9.18772e-18
7482.97839 9.11589e-18
7484.67598 9.06574e-18
7486.36352 8.71425e-18
7488.06111 8.38093e-18
7489.75870 8.61250e-18
7491.45629 9.19992e-18
7493.15387 9.57607e-18
7494.85146 9.63461e-18
7496.54905 9.53038e-18
7498.24664 9.36765e-18
7499.94423 9.24862e-18
7501.64181 9.16472e-18
7503.33940 8.97714e-18
7505.02695 8.71762e-18
7506.72453 8.61943e-18
7508.42212 8.75198e-18
7510.11971 8.95443e-18
7511.81730 9.13897e-18
7513.51489 9.36033e-18
7515.21247 9.58926e-18
7516.91006 9.61174e-18
7518.60765 9.33784e-18
7520.30524 9.00103e-18
7522.00283 8.78842e-18
7523.69037 8.67953e-18
7525.38796 8.63665e-18
7527.08555 8.57200e-18
7528.78313 8.41613e-18
7530.48072 8.33866e-18
7532.17831 8.49934e-18
7533.87590 8.63816e-18
7535.57349 8.46763e-18
7537.27107 8.28059e-18
7538.96866 8.46788e-18
7540.65621 8.85372e-18
7542.35379 9.10628e-18
7544.05138 9.21793e-18
7545.74897 9.29633e-18
7547.44656 9.31572e-18
7549.14415 9.20446e-18
7550.84173 9.19290e-18
7552.53932 9.18134e-18
7554.23691 9.16978e-18
7555.93450 9.15823e-18
7557.63209 9.14667e-18
7559.31963 9.13511e-18
7561.01722 9.12355e-18
7562.71481 9.11200e-18
7564.41239 9.10045e-18
7566.10998 9.08889e-18
7567.80757 9.07734e-18
7569.50516 9.06578e-18
7571.20275 9.05424e-18
7572.90033 9.04268e-18
7574.59792 9.03113e-18
7576.29551 9.01958e-18
7577.98305 9.00804e-18
7579.68064 8.99649e-18
7581.37823 8.98494e-18
7583.07582 8.97339e-18
7584.77341 8.96185e-18
7586.47099 8.95031e-18
7588.16858 8.93876e-18
7589.86617 8.92722e-18
7591.56376 8.91568e-18
7593.26135 8.90413e-18
7594.94889 8.89259e-18
7596.64648 8.88106e-18
7598.34407 8.86951e-18
7600.04165 8.85798e-18
7601.73924 8.84644e-18
7603.43683 8.83490e-18
7605.13442 8.82337e-18
7606.83201 8.81183e-18
7608.52959 8.80030e-18
7610.22718 8.78876e-18
7611.92477 8.77723e-18
7613.61231 8.76570e-18
7615.30990 8.75417e-18
7617.00749 8.74264e-18
7618.70508 8.73110e-18
7620.40267 8.71957e-18
7622.10025 8.70805e-18
7623.79784 8.69652e-18
7625.49543 8.68499e-18
7627.19302 8.67347e-18
7628.89061 8.66194e-18
7630.58820 8.65042e-18
7632.27574 8.63889e-18
7633.97333 8.62737e-18
7635.67091 8.61585e-18
7637.36850 8.60433e-18
7639.06609 8.59281e-18
7640.76368 8.58129e-18
7642.46127 8.56977e-18
7644.15886 8.55825e-18
7645.85644 8.54673e-18
7647.55403 8.53522e-18
7649.24157 8.52370e-18
7650.93916 8.51219e-18
7652.63675 8.50067e-18
7654.33434 8.48916e-18
7656.03193 8.47765e-18
7657.72952 8.46613e-18
7659.42710 8.45462e-18
7661.12469 8.44311e-18
7662.82228 8.43160e-18
7664.51987 8.42009e-18
7666.21746 8.40859e-18
7667.90500 8.39708e-18
7669.60259 8.38557e-18
7671.30017 8.37407e-18
7672.99776 8.36256e-18
7674.69535 8.35106e-18
7676.39294 8.33956e-18
7678.09053 8.32805e-18
7679.78812 8.31655e-18
7681.48570 8.30505e-18
7683.18329 8.21665e-18
7684.87083 8.19452e-18
7686.56842 8.21555e-18
7688.26601 8.32558e-18
7689.96360 8.52276e-18
7691.66119 8.70272e-18
7693.35878 8.78753e-18
7695.05636 8.80521e-18
7696.75395 8.79972e-18
7698.45154 8.89440e-18
7700.14913 9.17676e-18
7701.84672 9.37748e-18
7703.53426 9.22923e-18
7705.23185 8.92934e-18
7706.92944 8.74535e-18
7708.62702 8.82969e-18
7710.32461 9.28420e-18
7712.02220 9.75557e-18
7713.71979 9.75975e-18
7715.41738 9.25988e-18
7717.11496 8.41058e-18
7718.81255 7.58830e-18
7720.51014 7.29121e-18
7722.19768 7.53854e-18
7723.89527 8.02962e-18
7725.59286 8.50618e-18
7727.29045 8.72389e-18
7728.98804 8.68371e-18
7730.68562 8.66417e-18
7732.38321 8.74497e-18
7734.08080 8.74820e-18
7735.77839 8.61960e-18
7737.47598 8.47713e-18
7739.17356 8.37643e-18
7740.86111 8.25682e-18
7742.55870 8.12353e-18
7744.25628 8.13993e-18
7745.95387 8.38403e-18
7747.65146 8.70822e-18
7749.34905 8.96909e-18
7751.04664 9.04469e-18
7752.74422 8.88224e-18
7754.44181 8.80458e-18
7756.13940 9.09002e-18
7757.82694 9.38594e-18
7759.52453 9.31532e-18
7761.22212 9.13295e-18
7762.91971 9.17244e-18
7764.61730 9.34852e-18
7766.31488 9.48944e-18
7768.01247 9.48289e-18
7769.71006 9.23513e-18
7771.40765 8.88413e-18
7773.10524 8.65452e-18
7774.80282 8.63070e-18
7776.49037 8.83940e-18
7778.18796 9.05041e-18
7779.88554 8.86334e-18
7781.58313 8.32969e-18
7783.28072 7.84785e-18
7784.97831 7.62975e-18
7786.67590 7.72282e-18
7788.37348 8.05533e-18
7790.07107 8.39125e-18
7791.76866 8.59762e-18
7793.45620 8.70959e-18
7795.15379 8.76844e-18
7796.85138 8.84023e-18
7798.54897 8.94654e-18
7800.24656 8.98269e-18
7801.94414 8.88780e-18
7803.64173 8.69955e-18
7805.33932 8.49518e-18
7807.03691 8.51442e-18
7808.73450 8.90456e-18
7810.43208 9.36996e-18
7812.11963 9.61329e-18
7813.81722 9.60582e-18
7815.51480 9.37658e-18
7817.21239 9.07521e-18
7818.90998 8.86727e-18
7820.60757 8.79468e-18
7822.30516 8.86973e-18
7824.00274 8.83073e-18
7825.70033 8.33866e-18
7827.39792 7.80005e-18
7829.09551 7.88242e-18
7830.78305 8.50207e-18
7832.48064 9.23926e-18
7834.17823 9.66286e-18
7835.87582 9.30646e-18
7837.57340 8.38972e-18
7839.27099 7.67187e-18
7840.96858 7.42487e-18
7842.66617 7.46736e-18
7844.36376 7.68436e-18
7846.06135 8.00537e-18
7847.75893 8.34711e-18
7849.44648 8.65232e-18
7851.14406 8.88867e-18
7852.84165 9.06087e-18
7854.53924 9.18615e-18
7856.23683 9.31025e-18
7857.93442 9.43036e-18
7859.63201 9.37502e-18
7861.32959 9.04234e-18
7863.02718 8.77607e-18
7864.72477 8.68787e-18
7866.41231 7.54955e-18
7868.10990 4.48273e-18
7869.80749 5.91814e-19
7871.50508 -2.75415e-18
7873.20266 -3.65086e-18
7874.90025 -5.39460e-19
7876.59784 4.22193e-18
7878.29543 7.45679e-18
7879.99302 8.77463e-18
7881.69061 8.64889e-18
7883.38819 7.89695e-18
7885.07574 7.58941e-18
7886.77332 7.81270e-18
7888.47091 8.14588e-18
7890.16850 8.40989e-18
7891.86609 8.52107e-18
7893.56368 8.51194e-18
7895.26127 8.53231e-18
7896.95885 8.62775e-18
7898.65644 8.75323e-18
7900.35403 8.87441e-18
7902.05162 8.95031e-18
7903.73916 9.01525e-18
7905.43675 9.21766e-18
7907.13434 9.59133e-18
7908.83193 9.99018e-18
7910.52951 1.02772e-17
7912.22710 1.03209e-17
7913.92469 1.00864e-17
7915.62228 9.80043e-18
7917.31987 9.62747e-18
7919.01745 9.47257e-18
7920.70500 9.24734e-18
7922.40259 8.91921e-18
7924.10017 8.48715e-18
7925.79776 8.12441e-18
7927.49535 7.99551e-18
7929.19294 8.07274e-18
7930.89053 8.28357e-18
7932.58811 8.50446e-18
7934.28570 8.60313e-18
7935.98329 8.61644e-18
7937.68088 8.63348e-18
7939.36842 8.61836e-18
7941.06601 8.50269e-18
7942.76360 8.30127e-18
7944.46119 8.05897e-18
7946.15877 7.86803e-18
7947.85636 7.85063e-18
7949.55395 7.96945e-18
7951.25154 8.07262e-18
7952.94913 8.11950e-18
7954.64671 8.15917e-18
7956.33426 8.22975e-18
7958.03185 8.36668e-18
7959.72943 8.55390e-18
7961.42702 8.70847e-18
7963.12461 8.75617e-18
7964.82220 8.62730e-18
7966.51979 8.33855e-18
7968.21737 8.07127e-18
7969.91496 7.96461e-18
7971.61255 8.05045e-18
7973.31014 8.30390e-18
7974.99768 8.56710e-18
7976.69527 8.68516e-18
7978.39286 8.52994e-18
7980.09045 8.05280e-18
7981.78803 7.56555e-18
7983.48562 7.37332e-18
7985.18321 7.36749e-18
7986.88080 7.38328e-18
7988.57839 7.43387e-18
7990.27597 7.54900e-18
7991.97356 7.71969e-18
7993.66111 7.92926e-18
7995.35869 8.08014e-18
7997.05628 8.05805e-18
7998.75387 7.85640e-18
8000.45146 7.52040e-18
8002.14905 7.17032e-18
8003.84663 6.96079e-18
8005.54422 6.94668e-18
8007.24181 7.12417e-18
8008.93940 7.35023e-18
8010.63699 7.35081e-18
8012.32453 7.15725e-18
8014.02212 7.12500e-18
8015.71971 7.35848e-18
8017.41729 7.66340e-18
8019.11488 7.87621e-18
8020.81247 7.82612e-18
8022.51006 7.55680e-18
8024.20765 7.57989e-18
8025.90523 8.11709e-18
8027.60282 8.69470e-18
8029.29037 8.91182e-18
8030.98795 8.58778e-18
8032.68554 7.70428e-18
8034.38313 6.80571e-18
8036.08072 6.38699e-18
8037.77831 6.44409e-18
8039.47589 6.86418e-18
8041.17348 7.28333e-18
8042.87107 7.33350e-18
8044.56866 7.13739e-18
8046.26625 6.92239e-18
8047.95379 6.74009e-18
8049.65138 6.60775e-18
8051.34897 6.55360e-18
8053.04655 6.59757e-18
8054.74414 6.68665e-18
8056.44173 6.73116e-18
8058.13932 6.76579e-18
8059.83691 6.88583e-18
8061.53450 7.04873e-18
8063.23208 7.14851e-18
8064.92967 7.04461e-18
8066.61721 6.54429e-18
8068.31480 5.83983e-18
8070.01239 5.51343e-18
8071.70998 5.72061e-18
8073.40757 6.09666e-18
8075.10515 6.39272e-18
8076.80274 6.51602e-18
8078.50033 6.44435e-18
8080.19792 6.33381e-18
8081.89551 6.28385e-18
8083.58305 6.20592e-18
8085.28064 6.07176e-18
8086.97823 6.04851e-18
8088.67581 6.22766e-18
8090.37340 6.41667e-18
8092.07099 6.45025e-18
8093.76858 6.36374e-18
8095.46617 6.21845e-18
8097.16376 6.17741e-18
8098.86134 6.38473e-18
8100.55893 6.51559e-18
8102.24647 6.20249e-18
8103.94406 5.84806e-18
8105.64165 5.99987e-18
8107.33924 6.42302e-18
8109.03683 6.65995e-18
8110.73442 6.57371e-18
8112.43200 6.14169e-18
8114.12959 5.60040e-18
8115.82718 5.33573e-18
8117.52477 5.35400e-18
8119.22236 5.41951e-18
8120.90990 5.43470e-18
8122.60749 5.39604e-18
8124.30508 5.32615e-18
8126.00266 5.27774e-18
8127.70025 5.31916e-18
8129.39784 5.55063e-18
8131.09543 5.89327e-18
8132.79302 5.99278e-18
8134.49060 5.72460e-18
8136.18819 5.37099e-18
8137.87574 5.15149e-18
8139.57332 5.15012e-18
8141.27091 5.37731e-18
8142.96850 5.64042e-18
8144.66609 5.76460e-18
8146.36368 5.67438e-18
8148.06126 5.36543e-18
8149.75885 5.13272e-18
8151.45644 5.23085e-18
8153.15403 5.46593e-18
8154.85162 5.60580e-18
8156.53916 5.60661e-18
8158.23675 5.46723e-18
8159.93434 5.33391e-18
8161.63192 5.37749e-18
8163.32951 5.60360e-18
8165.02710 5.96239e-18
8166.72469 6.24929e-18
8168.42228 6.20965e-18
8170.11986 5.90288e-18
8171.81745 5.52924e-18
8173.51504 5.30866e-18
8175.20258 5.49563e-18
8176.90017 5.89035e-18
8178.59776 5.93399e-18
8180.29535 5.57783e-18
8181.99294 5.24225e-18
8183.69052 5.08790e-18
8185.38811 5.01493e-18
8187.08570 4.92030e-18
8188.78329 4.62616e-18
8190.48088 4.19253e-18
8192.16842 4.15395e-18
8193.86601 4.68981e-18
8195.56360 5.20446e-18
8197.26118 5.29863e-18
8198.95877 5.11727e-18
8200.65636 4.82927e-18
8202.35395 4.65977e-18
8204.05154 4.76746e-18
8205.74912 4.91300e-18
8207.44671 4.86789e-18
8209.14430 4.75690e-18
8210.83184 4.72285e-18
8212.52943 4.64699e-18
8214.22702 4.40083e-18
8215.92461 4.20549e-18
8217.62220 4.32491e-18
8219.31978 4.64511e-18
8221.01737 4.94804e-18
8222.71496 5.07271e-18
8224.41255 4.88034e-18
8226.11014 4.49301e-18
8227.79768 4.16656e-18
8229.49527 3.95707e-18
8231.19286 3.80687e-18
8232.89044 3.69151e-18
8234.58803 3.59330e-18
8236.28562 3.53257e-18
8237.98321 3.58024e-18
8239.68080 3.70307e-18
8241.37838 3.73624e-18
8243.07597 3.69323e-18
8244.77356 3.84640e-18
8246.46110 4.23573e-18
8248.15869 4.51736e-18
8249.85628 4.49615e-18
8251.55387 4.25454e-18
8253.25146 3.92337e-18
8254.94904 3.77110e-18
8256.64663 3.95685e-18
8258.34422 4.24440e-18
8260.04181 4.41690e-18
8261.73940 4.48308e-18
8263.43699 4.46295e-18
8265.12453 4.35363e-18
8266.82212 4.16954e-18
8268.51970 3.89469e-18
8270.21729 3.52493e-18
8271.91488 3.30561e-18
8273.61247 3.49610e-18
8275.31006 3.88022e-18
8277.00764 4.11919e-18
8278.70523 4.13720e-18
8280.40282 3.94896e-18
8282.10041 3.71539e-18
8283.78795 3.67587e-18
8285.48554 3.79767e-18
8287.18313 3.90687e-18
8288.88072 3.91119e-18
8290.57830 3.73490e-18
8292.27589 3.61262e-18
8293.97348 4.07352e-18
8295.67107 5.03091e-18
8297.36866 5.73922e-18
8299.05620 5.88470e-18
8300.76383 5.70699e-18
8302.45138 5.38794e-18
8304.14896 5.05135e-18
8305.84655 4.78096e-18
8307.54414 4.50347e-18
8309.24173 4.20727e-18
8310.93932 4.09131e-18
8312.63691 4.23039e-18
8314.33449 4.30145e-18
8316.03208 4.07473e-18
8317.72967 3.77071e-18
8319.41721 3.60625e-18
8321.11480 3.54966e-18
8322.81239 3.55649e-18
8324.50998 3.77344e-18
8326.20757 4.31850e-18
8327.90515 4.79743e-18
8329.60274 4.75980e-18
8331.30033 4.44639e-18
8332.99792 4.27471e-18
8334.69551 4.23957e-18
8336.38305 4.20705e-18
8338.08064 4.15567e-18
8339.77823 4.08757e-18
8341.47581 4.06403e-18
8343.17340 4.19630e-18
8344.87099 4.38097e-18
8346.56858 4.35582e-18
8348.26617 4.19259e-18
8349.96375 4.24862e-18
8351.66134 4.52693e-18
8353.35893 4.66659e-18
8355.05652 4.58373e-18
8356.74406 4.53457e-18
8358.44165 4.62252e-18
8360.13924 4.73035e-18
8361.83683 4.79497e-18
8363.53441 4.84835e-18
8365.23200 4.88016e-18
8366.92959 4.78613e-18
8368.62718 4.51796e-18
8370.32477 4.17671e-18
8372.01231 3.86406e-18
8373.71994 3.63900e-18
8375.40749 3.54831e-18
8377.10507 3.57318e-18
8378.80266 3.68264e-18
8380.50025 4.00809e-18
8382.19784 4.64638e-18
8383.89543 5.14022e-18
8385.59301 4.99228e-18
8387.29060 4.46991e-18
8388.98819 4.02990e-18
8390.67573 3.81042e-18
8392.37332 3.85066e-18
8394.07091 4.03560e-18
8395.76850 4.16178e-18
8397.46609 4.22153e-18
8399.16367 4.31751e-18
8400.86126 4.41920e-18
8402.55885 4.41799e-18
8404.25644 4.34975e-18
8405.95403 4.34389e-18
8407.65161 4.48106e-18
8409.33916 4.82702e-18
8411.03675 5.21386e-18
8412.73433 5.15800e-18
8414.43192 4.60865e-18
8416.12951 4.16331e-18
8417.82710 4.17806e-18
8419.52469 4.59909e-18
8421.22227 5.25118e-18
8422.91986 5.63022e-18
8424.61745 5.46384e-18
8426.31504 5.23786e-18
8428.00258 5.33077e-18
8429.70017 5.62394e-18
8431.39776 5.94966e-18
8433.09535 5.92649e-18
8434.79293 5.28005e-18
8436.49052 4.61865e-18
8438.18811 4.57566e-18
8439.88570 4.96314e-18
8441.58329 5.44159e-18
8443.28087 5.69060e-18
8444.96842 5.40640e-18
8446.66601 4.87342e-18
8448.36359 4.58419e-18
8450.06118 4.47115e-18
8451.75877 4.23398e-18
8453.45636 4.09027e-18
8455.15395 4.49226e-18
8456.85153 5.25894e-18
8458.54912 5.84023e-18
8460.24671 6.02526e-18
8461.94430 5.84355e-18
8463.63184 5.45896e-18
8465.32943 5.18767e-18
8467.02702 5.15714e-18
8468.72461 5.24613e-18
8470.42219 5.37883e-18
8472.11978 5.55391e-18
8473.81737 5.71007e-18
8475.51496 5.68859e-18
8477.21255 5.45802e-18
8478.91013 5.25328e-18
8480.60772 5.24881e-18
8482.29527 5.46529e-18
8483.99285 5.84246e-18
8485.69044 6.02920e-18
8487.38803 5.77493e-18
8489.08562 5.41558e-18
8490.78321 5.27935e-18
8492.48079 5.18378e-18
8494.17838 4.93269e-18
8495.87597 4.79965e-18
8497.57356 5.07786e-18
8499.27115 5.55097e-18
8500.95869 5.89884e-18
8502.65628 6.02107e-18
8504.35387 5.88901e-18
8506.05145 5.61682e-18
8507.74904 5.38843e-18
8509.44663 5.24872e-18
8511.14422 5.16505e-18
8512.84181 5.15146e-18
8514.53940 5.25389e-18
8516.23698 5.36671e-18
8517.93457 5.26752e-18
8519.62211 5.02019e-18
8521.31970 4.94589e-18
8523.01729 5.15255e-18
8524.71488 5.52704e-18
8526.41247 5.91516e-18
8528.11006 6.06746e-18
8529.80764 5.96200e-18
8531.50523 6.00695e-18
8533.20282 6.39048e-18
8534.90041 6.81772e-18
8536.58795 7.07238e-18
8538.28554 7.14876e-18
8539.98313 7.07223e-18
8541.68072 6.96032e-18
8543.37830 6.92599e-18
8545.07589 7.04305e-18
8546.77348 7.32477e-18
8548.47107 7.48834e-18
8550.16866 7.26973e-18
8551.86624 6.73863e-18
8553.55379 6.04732e-18
8555.25137 5.51506e-18
8556.94896 5.46190e-18
8558.64655 5.81857e-18
8560.34414 6.39371e-18
8562.04173 6.82960e-18
8563.73932 6.69723e-18
8565.43690 6.31399e-18
8567.13449 6.36526e-18
8568.83208 6.71222e-18
8570.52967 6.75442e-18
8572.21721 6.43337e-18
8573.91480 6.03970e-18
8575.61239 5.77419e-18
8577.30998 5.79593e-18
8579.00756 6.07019e-18
8580.70515 6.31430e-18
8582.40274 6.43709e-18
8584.10033 6.63564e-18
8585.79792 6.92693e-18
8587.49550 7.01893e-18
8589.18305 6.82843e-18
8590.88064 6.69764e-18
8592.57822 6.81974e-18
8594.27581 6.97746e-18
8595.97340 7.02736e-18
8597.67099 7.12585e-18
8599.36858 7.36580e-18
8601.06616 7.52530e-18
8602.76375 7.43275e-18
8604.46134 7.26309e-18
8606.15893 7.21084e-18
8607.85652 7.39365e-18
8609.54406 7.87628e-18
8611.24165 8.38606e-18
8612.93924 8.59517e-18
8614.63682 8.44757e-18
8616.33441 7.98652e-18
8618.03200 7.39336e-18
8619.72959 6.90386e-18
8621.42718 6.64940e-18
8623.12476 6.70242e-18
8624.82235 6.95270e-18
8626.50990 7.17947e-18
8628.20748 7.30671e-18
8629.90507 7.35790e-18
8631.60266 7.38250e-18
8633.30025 7.46212e-18
8634.99784 7.60290e-18
8636.69542 7.72451e-18
8638.39301 7.77417e-18
8640.09060 7.73760e-18
8641.78819 7.60806e-18
8643.48578 7.37664e-18
8645.17332 7.10993e-18
8646.87091 7.04892e-18
8648.56850 7.26397e-18
8650.26608 7.35797e-18
8651.96367 7.11828e-18
8653.66126 6.98084e-18
8655.35885 7.26146e-18
8657.05644 7.71989e-18
8658.75402 8.10118e-18
8660.45161 8.23725e-18
8662.13916 8.02071e-18
8663.83674 7.73799e-18
8665.53433 7.70626e-18
8667.23192 7.83894e-18
8668.92951 7.97090e-18
8670.62710 8.02974e-18
8672.32468 7.96073e-18
8674.02227 7.83144e-18
8675.71986 7.76882e-18
8677.41745 7.70512e-18
8679.11504 7.47030e-18
8680.80258 7.28986e-18
8682.50017 7.61382e-18
8684.19776 8.19834e-18
8685.89534 8.33416e-18
8687.59293 8.00417e-18
8689.29052 7.75481e-18
8690.98811 7.74555e-18
8692.68570 7.75086e-18
8694.38328 7.75093e-18
8696.08087 7.96621e-18
8697.76842 8.36945e-18
8699.46600 8.58289e-18
8701.16359 8.39334e-18
8702.86118 7.87198e-18
8704.55877 7.16455e-18
8706.25636 6.57019e-18
8707.95394 6.32150e-18
8709.65153 6.42477e-18
8711.34912 6.81671e-18
8713.04671 7.29403e-18
8714.74430 7.65638e-18
8716.43184 7.83181e-18
8718.12943 7.79734e-18
8719.82702 7.65325e-18
8721.52460 7.52414e-18
8723.22219 7.51249e-18
8724.91978 7.70005e-18
8726.61737 7.92834e-18
8728.31496 7.97732e-18
8730.01255 7.98876e-18
8731.71013 8.21365e-18
8733.40772 8.50824e-18
8735.09526 8.58729e-18
8736.79285 8.41476e-18
8738.49044 8.06052e-18
8740.18803 7.74318e-18
8741.88562 7.80371e-18
8743.58321 8.11745e-18
8745.28079 8.16805e-18
8746.97838 7.90847e-18
8748.67597 7.76565e-18
8750.37356 7.81992e-18
8752.07115 7.72468e-18
8753.75869 7.45481e-18
8755.45628 7.46608e-18
8757.15386 7.87700e-18
8758.85145 8.18435e-18
8760.54904 8.13776e-18
8762.24663 8.06442e-18
8763.94422 8.19040e-18
8765.64181 8.49531e-18
8767.33939 8.88058e-18
8769.03698 8.87546e-18
8770.72452 8.17686e-18
8772.42211 7.49014e-18
8774.11970 7.45374e-18
8775.81729 7.46622e-18
8777.51488 6.88087e-18
8779.21247 6.26586e-18
8780.91005 6.32134e-18
8782.60764 6.61161e-18
8784.30523 6.47355e-18
8786.00282 6.21101e-18
8787.70041 6.39199e-18
8789.38795 6.84805e-18
8791.08554 7.14307e-18
8792.78313 7.23062e-18
8794.48071 7.23877e-18
8796.17830 7.21243e-18
8797.87589 7.16693e-18
8799.57348 7.09744e-18
8801.27107 6.97341e-18
8802.96865 6.79902e-18
8804.66624 6.61088e-18
8806.36383 6.42961e-18
8808.05137 6.26066e-18
8809.74896 6.09340e-18
8811.44655 5.89471e-18
8813.14414 5.64639e-18
8814.84173 5.34859e-18
8816.53931 5.04047e-18
8818.23690 4.85092e-18
8819.93449 4.85219e-18
8821.63208 4.95118e-18
8823.32967 5.07321e-18
8825.02725 5.25720e-18
8826.71480 5.52392e-18
8828.41239 5.79790e-18
8830.10997 6.01228e-18
8831.80756 6.20468e-18
8833.50515 6.41712e-18
8835.20274 6.57010e-18
8836.90033 6.57858e-18
8838.59791 6.55168e-18
8840.29550 6.63144e-18
8841.98305 6.72380e-18
8843.68063 6.67895e-18
8845.37822 6.49143e-18
8847.07581 6.20243e-18
8848.77340 5.98096e-18
8850.47099 6.06064e-18
8852.16857 6.36166e-18
8853.86616 6.61192e-18
8855.56375 6.73357e-18
8857.26134 6.78467e-18
8858.95893 6.79206e-18
8860.64647 6.77849e-18
8862.34406 6.71823e-18
8864.04165 6.50314e-18
8865.73923 6.19448e-18
8867.43682 6.09762e-18
8869.13441 6.31440e-18
8870.83200 6.60956e-18
8872.52959 6.80333e-18
8874.22717 6.81390e-18
8875.92476 6.64951e-18
8877.62235 6.60613e-18
8879.30989 6.85131e-18
8881.00748 7.02056e-18
8882.70507 6.84976e-18
8884.40266 6.64789e-18
8886.10025 6.70383e-18
8887.79783 6.92738e-18
8889.49542 7.19208e-18
8891.19301 7.51900e-18
8892.89060 7.92739e-18
8894.58819 8.19139e-18
8896.28577 8.06308e-18
8897.98336 7.74902e-18
8899.67091 7.57591e-18
8901.36849 7.48830e-18
8903.06608 7.31598e-18
8904.76367 6.93861e-18
8906.46126 6.23922e-18
8908.15885 5.51651e-18
8909.85643 5.30203e-18
8911.55402 5.62253e-18
8913.25161 6.16938e-18
8914.93915 6.60683e-18
8916.64679 6.53541e-18
8918.33433 6.04476e-18
8920.03192 5.80185e-18
8921.72951 5.99039e-18
8923.42709 6.13285e-18
8925.12468 6.00117e-18
8926.82227 5.73600e-18
8928.51986 5.47810e-18
8930.21745 5.41412e-18
8931.91504 5.64350e-18
8933.60258 6.02378e-18
8935.30017 6.40498e-18
8936.99775 6.69705e-18
8938.69534 6.81286e-18
8940.39293 6.61152e-18
8942.09052 6.04663e-18
8943.78811 5.51406e-18
8945.48570 5.39626e-18
8947.18328 5.57405e-18
8948.88087 5.84229e-18
8950.57846 6.17039e-18
8952.26600 6.54760e-18
8953.96359 6.80650e-18
8955.66118 6.75850e-18
8957.35877 6.58545e-18
8959.05635 6.59980e-18
8960.75394 6.72314e-18
8962.45153 6.70806e-18
8964.14912 6.55738e-18
8965.84671 6.40408e-18
8967.54430 6.27691e-18
8969.24188 6.13513e-18
8970.92943 6.02008e-18
8972.62701 6.05081e-18
8974.32460 6.15263e-18
8976.02219 6.03543e-18
8977.71978 5.69600e-18
8979.41737 5.50195e-18
8981.11496 5.60444e-18
8982.81254 5.85548e-18
8984.51013 6.04691e-18
8986.20772 5.74890e-18
8987.89526 4.92920e-18
8989.59285 4.64152e-18
8991.29044 5.47099e-18
8992.98803 6.44520e-18
8994.68562 6.76371e-18
8996.38320 6.56631e-18
8998.08079 6.08604e-18
8999.77838 5.81070e-18
9001.47597 6.15078e-18
9003.17356 6.49395e-18
9004.87114 6.16561e-18
9006.55869 5.55749e-18
9008.25628 5.23331e-18
9009.95386 5.14186e-18
9011.65145 5.09489e-18
9013.34904 5.04160e-18
9015.04663 4.94799e-18
9016.74422 4.92511e-18
9018.44180 5.15808e-18
9020.13939 5.47944e-18
9021.83698 5.53929e-18
9023.53457 5.34341e-18
9025.22211 5.11882e-18
9026.91970 5.02507e-18
9028.61729 5.17954e-18
9030.31488 5.54089e-18
9032.01246 5.89615e-18
9033.71005 6.10238e-18
9035.40764 6.11716e-18
9037.10523 5.93058e-18
9038.80282 5.57437e-18
9040.50040 5.15673e-18
9042.19799 4.92263e-18
9043.88554 4.98382e-18
9045.58312 5.13169e-18
9047.28071 5.20529e-18
9048.97830 5.20948e-18
9050.67589 5.18185e-18
9052.37348 5.32420e-18
9054.07106 5.76165e-18
9055.76865 6.16582e-18
9057.46624 6.22550e-18
9059.16383 5.99577e-18
9060.85137 5.60295e-18
9062.54896 5.29101e-18
9064.24655 5.30535e-18
9065.94414 5.53957e-18
9067.64172 5.79361e-18
9069.33931 5.98229e-18
9071.03690 6.04137e-18
9072.73449 6.10016e-18
9074.43208 6.38587e-18
9076.12966 6.66954e-18
9077.82725 6.49588e-18
9079.51480 5.94126e-18
9081.21238 5.39980e-18
9082.90997 5.10728e-18
9084.60756 5.20090e-18
9086.30515 5.55338e-18
9088.00274 5.75265e-18
9089.70032 5.66210e-18
9091.39791 5.49395e-18
9093.09550 5.35521e-18
9094.79309 5.21006e-18
9096.48063 5.04837e-18
9098.17822 4.86852e-18
9099.87581 4.69563e-18
9101.57340 4.62154e-18
9103.27098 4.71342e-18
9104.96857 5.00437e-18
9106.66616 5.45436e-18
9108.36375 5.78153e-18
9110.06134 5.76258e-18
9111.75892 5.49316e-18
9113.45651 5.11540e-18
9115.14406 4.80030e-18
9116.84164 4.70138e-18
9118.53923 4.70827e-18
9120.23682 4.66526e-18
9121.93441 4.63210e-18
9123.63200 4.70860e-18
9125.32958 4.85768e-18
9127.02717 5.00614e-18
9128.72476 5.15026e-18
9130.42235 5.30695e-18
9132.10989 5.48840e-18
9133.80748 5.71080e-18
9135.50507 5.91786e-18
9137.20266 6.00314e-18
9138.90024 5.98729e-18
9140.59783 5.99159e-18
9142.29542 6.01019e-18
9143.99301 5.92369e-18
9145.69060 5.69405e-18
9147.38819 5.36395e-18
9149.08577 5.01137e-18
9150.78336 4.77366e-18
9152.47090 4.70384e-18
9154.16849 4.70450e-18
9155.86608 4.68970e-18
9157.56367 4.60491e-18
9159.26126 4.43191e-18
9160.95884 4.23830e-18
9162.65643 4.10932e-18
9164.35402 4.21656e-18
9166.05161 4.63485e-18
9167.74920 4.94480e-18
9169.43674 4.79497e-18
9171.13433 4.57060e-18
9172.83192 4.68448e-18
9174.52950 4.89331e-18
9176.22709 4.88344e-18
9177.92468 4.83906e-18
9179.62227 5.02272e-18
9181.31986 5.34965e-18
9183.01745 5.64634e-18
9184.71503 5.80459e-18
9186.41262 5.73790e-18
9188.10016 5.55435e-18
9189.79775 5.45728e-18
9191.49534 5.49532e-18
9193.19293 5.63441e-18
9194.89052 5.76517e-18
9196.58811 5.70982e-18
9198.28569 5.50732e-18
9199.98328 5.40064e-18
9201.68087 5.48045e-18
9203.37846 5.65782e-18
9205.06600 5.90935e-18
9206.76359 6.31221e-18
9208.46118 6.79324e-18
9210.15877 7.02785e-18
9211.85635 6.87502e-18
9213.55394 6.57357e-18
9215.25153 6.31110e-18
9216.94912 6.12130e-18
9218.64671 6.00806e-18
9220.34429 5.82254e-18
9222.04188 5.48576e-18
9223.72943 5.31582e-18
9225.42701 5.57288e-18
9227.12460 6.08855e-18
9228.82219 6.63478e-18
9230.51978 6.98776e-18
9232.21737 6.95237e-18
9233.91495 6.62292e-18
9235.61254 6.18575e-18
9237.31013 5.65239e-18
9239.00772 4.99252e-18
9240.69526 4.51009e-18
9242.39285 4.59946e-18
9244.09044 5.09468e-18
9245.78803 5.57482e-18
9247.48561 5.84383e-18
9249.18320 5.82799e-18
9250.88079 5.59996e-18
9252.57838 5.34920e-18
9254.27597 5.20324e-18
9255.97355 5.23983e-18
9257.67114 5.38509e-18
9259.35869 5.38078e-18
9261.05627 5.18827e-18
9262.75386 5.06865e-18
9264.45145 5.15536e-18
9266.14904 5.40019e-18
9267.84663 5.69383e-18
9269.54421 5.76766e-18
9271.24180 5.50992e-18
9272.93939 5.22347e-18
9274.63698 5.14905e-18
9276.33457 5.29066e-18
9278.02211 5.60126e-18
9279.71970 5.87866e-18
9281.41729 5.94424e-18
9283.11487 5.82307e-18
9284.81246 5.58575e-18
9286.51005 5.47045e-18
9288.20764 5.70256e-18
9289.90523 5.97625e-18
9291.60281 5.89631e-18
9293.30040 5.70415e-18
9294.99799 5.80206e-18
9296.68553 5.95581e-18
9298.38312 5.71995e-18
9300.08071 5.32438e-18
9301.77830 5.29182e-18
9303.47589 5.47068e-18
9305.17347 5.35990e-18
9306.87106 4.97273e-18
9308.56865 4.62371e-18
9310.26624 4.57622e-18
9311.96383 5.09834e-18
9313.65137 5.96904e-18
9315.34896 6.43042e-18
9317.04655 6.24479e-18
9318.74413 5.85212e-18
9320.44172 5.55070e-18
9322.13931 5.42297e-18
9323.83690 5.54295e-18
9325.53449 5.91889e-18
9327.23207 6.49951e-18
9328.92966 7.19359e-18
9330.62725 7.82862e-18
9332.31479 7.98012e-18
9334.01238 7.40241e-18
9335.70997 6.47173e-18
9337.40756 5.61100e-18
9339.10515 5.15365e-18
9340.80273 5.33589e-18
9342.50032 5.87228e-18
9344.19791 6.38673e-18
9345.89550 6.82321e-18
9347.59309 7.17948e-18
9349.29068 7.32362e-18
9350.97822 7.14245e-18
9352.67581 6.62848e-18
9354.37339 5.81304e-18
9356.07098 5.13082e-18
9357.76857 5.16312e-18
9359.46616 5.77567e-18
9361.16375 6.47178e-18
9362.86133 6.85455e-18
9364.55892 6.57069e-18
9366.25651 5.85240e-18
9367.95410 5.40475e-18
9369.64164 5.58056e-18
9371.33923 6.42111e-18
9373.03682 7.53743e-18
9374.73441 7.93193e-18
9376.43199 7.37174e-18
9378.12958 6.85612e-18
9379.82717 6.91414e-18
9381.52476 7.17168e-18
9383.22235 7.37344e-18
9384.90989 7.54436e-18
9386.60748 7.61764e-18
9388.30507 7.20275e-18
9390.00265 6.18897e-18
9391.70024 5.64420e-18
9393.39783 6.33521e-18
9395.09542 7.14513e-18
9396.79301 6.98011e-18
9398.49060 6.12881e-18
9400.18818 5.07902e-18
9401.88577 4.16545e-18
9403.57331 3.69737e-18
9405.27090 3.86457e-18
9406.96849 4.74350e-18
9408.66608 5.91162e-18
9410.36367 6.79785e-18
9412.06126 7.07617e-18
9413.75884 6.54753e-18
9415.45643 5.60660e-18
9417.15402 4.96026e-18
9418.85161 4.82431e-18
9420.54920 5.10932e-18
9422.23674 5.52776e-18
9423.93433 5.60083e-18
9425.63192 5.26975e-18
9427.32950 4.91579e-18
9429.02709 4.67887e-18
9430.72468 4.41821e-18
9432.42227 4.10694e-18
9434.11986 3.81903e-18
9435.81744 3.70283e-18
9437.51503 4.12433e-18
9439.21262 5.10633e-18
9440.90016 5.86155e-18
9442.59775 5.91567e-18
9444.29534 5.77464e-18
9445.99293 5.82649e-18
9447.69052 5.85707e-18
9449.38810 5.69461e-18
9451.08569 5.42144e-18
9452.78328 5.13079e-18
9454.48087 4.94059e-18
9456.17846 4.95081e-18
9457.86600 4.98291e-18
9459.56359 4.82936e-18
9461.26118 4.72707e-18
9462.95876 4.98197e-18
9464.65635 5.44756e-18
9466.35394 5.84565e-18
9468.05153 5.98057e-18
9469.74912 5.71371e-18
9471.44670 5.07304e-18
9473.14429 4.16414e-18
9474.84188 3.41780e-18
9476.52942 3.46657e-18
9478.22701 4.21045e-18
9479.92460 4.97470e-18
9481.62219 5.51693e-18
9483.31978 5.99626e-18
9485.01736 6.39473e-18
9486.71495 6.54832e-18
9488.41254 6.36620e-18
9490.11013 5.77468e-18
9491.80772 4.97638e-18
9493.50530 4.70943e-18
9495.19285 5.23461e-18
9496.89044 5.73912e-18
9498.58802 5.69161e-18
9500.28561 5.38051e-18
9501.98320 5.09343e-18
9503.68079 5.11544e-18
9505.37838 5.60323e-18
9507.07596 5.98990e-18
9508.77355 5.78486e-18
9510.47114 5.45196e-18
9512.16873 5.48968e-18
9513.85627 5.69884e-18
9515.55386 5.79229e-18
9517.25145 5.67310e-18
9518.94904 5.30188e-18
9520.64662 4.82949e-18
9522.34421 4.45416e-18
9524.04180 4.44934e-18
9525.73939 5.10072e-18
9527.43698 5.99877e-18
9529.13456 6.41616e-18
9530.82211 6.23978e-18
9532.51970 5.69566e-18
9534.21728 5.16642e-18
9535.91487 5.18232e-18
9537.61246 5.69127e-18
9539.31005 6.11454e-18
9541.00764 6.12973e-18
9542.70522 5.65308e-18
9544.40281 4.93284e-18
9546.10040 4.75238e-18
9547.79799 5.31348e-18
9549.48553 5.78510e-18
9551.18312 5.69063e-18
9552.88071 5.29616e-18
9554.57830 4.84443e-18
9556.27588 4.54860e-18
9557.97347 4.54334e-18
9559.67106 4.56860e-18
9561.36865 4.44669e-18
9563.06624 4.56708e-18
9564.76382 5.22360e-18
9566.46141 6.02538e-18
9568.14896 6.55201e-18
9569.84654 6.62439e-18
9571.54413 6.15315e-18
9573.24172 5.73956e-18
9574.93931 6.09472e-18
9576.63690 6.63183e-18
9578.33448 6.41876e-18
9580.03207 5.87208e-18
9581.72966 5.87094e-18
9583.42725 6.21445e-18
9585.12484 6.23940e-18
9586.81238 5.96083e-18
9588.50997 5.75179e-18
9590.20756 5.66206e-18
9591.90514 5.54171e-18
9593.60273 5.40745e-18
9595.30032 5.37894e-18
9596.99791 5.53569e-18
9598.69550 5.95889e-18
9600.39309 6.44482e-18
9602.09067 6.40483e-18
9603.77822 5.64297e-18
9605.47580 4.53497e-18
9607.17339 3.57695e-18
9608.87098 3.60150e-18
9610.56857 4.82902e-18
9612.26616 5.86425e-18
9613.96375 5.74005e-18
9615.66133 5.01773e-18
9617.35892 4.30228e-18
9619.05651 4.19719e-18
9620.75410 5.07415e-18
9622.44164 5.74502e-18
9624.13923 5.09772e-18
9625.83682 4.07585e-18
9627.53441 3.81758e-18
9629.23199 4.15881e-18
9630.92958 4.68670e-18
9632.62717 5.15169e-18
9634.32476 5.32669e-18
9636.02235 5.23998e-18
9637.71993 5.03619e-18
9639.40748 4.84767e-18
9641.10506 4.80415e-18
9642.80265 4.94209e-18
9644.50024 5.21758e-18
9646.19783 5.60683e-18
9647.89542 6.12272e-18
9649.59301 6.50639e-18
9651.29059 6.28201e-18
9652.98818 5.46796e-18
9654.68577 4.56549e-18
9656.38336 4.00449e-18
9658.07090 4.14507e-18
9659.76849 4.97390e-18
9661.46608 5.87828e-18
9663.16367 6.39618e-18
9664.86125 6.39702e-18
9666.55884 5.88183e-18
9668.25643 5.17032e-18
9669.95402 4.53630e-18
9671.65161 3.95106e-18
9673.34919 3.41624e-18
9675.03674 3.09902e-18
9676.73433 3.11600e-18
9678.43191 3.48635e-18
9680.12950 4.15436e-18
9681.82709 4.58797e-18
9683.52468 4.28950e-18
9685.22227 3.81128e-18
9686.91985 3.86827e-18
9688.61744 4.19813e-18
9690.31503 4.30568e-18
9692.01262 4.30536e-18
9693.71021 4.48335e-18
9695.39775 4.71617e-18
9697.09534 4.75663e-18
9698.79293 4.51745e-18
9700.49051 3.93237e-18
9702.18810 3.49376e-18
9703.88569 4.12000e-18
9705.58328 5.36424e-18
9707.28087 5.65701e-18
9708.97845 4.79677e-18
9710.67604 3.91344e-18
9712.36359 3.60087e-18
9714.06117 3.88615e-18
9715.75876 4.55115e-18
9717.45635 4.88005e-18
9719.15394 4.58651e-18
9720.85153 4.27973e-18
9722.54911 4.33228e-18
9724.24670 4.53643e-18
9725.94429 4.73449e-18
9727.64188 4.93251e-18
9729.33947 5.09322e-18
9731.02701 4.99335e-18
9732.72460 4.51980e-18
9734.42219 4.14745e-18
9736.11977 4.29789e-18
9737.81736 4.61393e-18
9739.51495 4.67978e-18
9741.21254 4.63790e-18
9742.91013 4.70762e-18
9744.60771 4.82443e-18
9746.30530 4.87694e-18
9747.99285 4.86764e-18
9749.69043 4.82019e-18
9751.38802 4.84955e-18
9753.08561 5.10932e-18
9754.78320 5.43160e-18
9756.48079 5.50401e-18
9758.17837 5.25355e-18
9759.87596 4.71747e-18
9761.57355 4.24415e-18
9763.27114 4.46523e-18
9764.96873 5.19479e-18
9766.65627 5.45551e-18
9768.35386 4.92572e-18
9770.05145 4.02469e-18
9771.74903 3.20252e-18
9773.44662 3.00964e-18
9775.14421 3.62161e-18
9776.84180 4.52411e-18
9778.53939 5.20743e-18
9780.23697 5.16603e-18
9781.93456 4.24981e-18
9783.62211 3.36250e-18
9785.31969 3.18304e-18
9787.01728 3.27753e-18
9788.71487 3.25852e-18
9790.41246 3.40157e-18
9792.11005 3.91043e-18
9793.80763 4.31367e-18
9795.50522 4.15490e-18
9797.20281 3.70185e-18
9798.90040 3.33694e-18
9800.59799 3.12200e-18
9802.28553 3.05879e-18
9803.98312 3.07468e-18
9805.68071 3.03931e-18
9807.37829 3.19821e-18
9809.07588 3.94686e-18
9810.77347 4.85073e-18
9812.47106 5.07720e-18
9814.16865 4.70996e-18
9815.86624 4.37942e-18
9817.56382 4.30668e-18
9819.26141 4.42677e-18
9820.94895 4.68593e-18
9822.64654 5.01485e-18
9824.34413 5.26485e-18
9826.04172 5.22425e-18
9827.73931 4.82790e-18
9829.43690 4.19477e-18
9831.13448 3.54237e-18
9832.83207 3.25415e-18
9834.52966 3.51232e-18
9836.22725 4.08595e-18
9837.92484 4.69484e-18
9839.61238 4.97520e-18
9841.30997 4.70791e-18
9843.00755 4.16379e-18
9844.70514 3.64780e-18
9846.40273 3.34999e-18
9848.10032 3.41055e-18
9849.79791 3.90067e-18
9851.49550 4.79465e-18
9853.19308 5.35039e-18
9854.89067 4.83022e-18
9856.57821 4.06355e-18
9858.27580 4.16684e-18
9859.97339 4.82829e-18
9861.67098 5.35549e-18
9863.36857 5.51734e-18
9865.06616 5.20506e-18
9866.76374 4.84491e-18
9868.46133 5.14060e-18
9870.15892 5.84711e-18
9871.85651 6.19509e-18
9873.55410 5.85290e-18
9875.24164 4.75923e-18
9876.93923 3.36730e-18
9878.63682 2.61109e-18
9880.33440 2.80678e-18
9882.03199 3.59652e-18
9883.72958 4.50407e-18
9885.42717 4.82322e-18
9887.12476 4.40951e-18
9888.82234 4.20125e-18
9890.51993 4.58007e-18
9892.21752 4.63635e-18
9893.90506 3.95038e-18
9895.60265 3.41758e-18
9897.30024 3.61659e-18
9898.99783 4.04940e-18
9900.69542 4.25373e-18
9902.39300 4.02060e-18
9904.09059 3.27585e-18
9905.78818 2.73379e-18
9907.48577 3.05832e-18
9909.17331 3.68712e-18
9910.88094 3.92359e-18
9912.56849 3.82581e-18
9914.26608 3.59469e-18
9915.96366 3.53470e-18
9917.66125 3.97872e-18
9919.35884 4.54879e-18
9921.05643 4.62450e-18
9922.75402 4.20330e-18
9924.45160 3.55521e-18
9926.14919 2.97050e-18
9927.83674 2.77616e-18
9929.53432 2.96433e-18
9931.23191 3.26079e-18
9932.92950 3.60607e-18
9934.62709 4.11524e-18
9936.32468 4.74832e-18
9938.02226 5.36266e-18
9939.71985 5.70748e-18
9941.41744 5.32461e-18
9943.11503 4.32313e-18
9944.81262 3.72019e-18
9946.50016 4.11172e-18
9948.19775 5.32743e-18
9949.89534 6.90363e-18
9951.59292 7.65076e-18
9953.29051 6.81761e-18
9954.98810 5.06713e-18
9956.68569 3.17447e-18
9958.38328 1.97103e-18
9960.08086 2.03964e-18
9961.77845 2.43796e-18
9963.47604 2.19710e-18
9965.16358 1.86518e-18
9966.86117 2.12618e-18
9968.55876 2.74811e-18
9970.25635 3.35478e-18
9971.95394 3.94428e-18
9973.65152 4.58185e-18
9975.34911 5.26060e-18
9977.04670 5.96485e-18
9978.74429 6.51120e-18
9980.44188 6.65769e-18
9982.13946 6.42829e-18
9983.82701 5.97466e-18
9985.52460 5.54689e-18
9987.22218 5.50328e-18
9988.91977 5.64204e-18
9990.61736 5.25124e-18
9992.31495 4.40529e-18
9994.01254 4.00795e-18
9995.71012 4.29714e-18
9997.40771 4.66762e-18
9999.10530 4.85413e-18
