# wavelength flux
3201.02837 3.75894e-18
3202.72596 1.69131e-17
3204.42355 1.48712e-17
3206.12114 1.12970e-17
3207.81873 9.50092e-18
3209.51631 8.54841e-18
3211.21390 1.27476e-18
3212.91149 8.00045e-18
3214.60908 1.74700e-17
3216.30667 1.63797e-17
3218.00425 1.00302e-17
3219.70184 -1.91268e-18
3221.39943 -9.78043e-18
3223.09702 -1.02971e-17
3224.79461 -6.19550e-18
3226.49219 -7.76091e-18
3228.18978 -4.54670e-18
3229.88737 2.86555e-18
3231.58496 -9.25913e-19
3233.28255 -5.49947e-18
3234.98013 -4.62174e-18
3236.67772 -7.31637e-19
3238.37531 -1.76000e-18
3240.07290 9.92736e-19
3241.78053 4.16298e-18
3243.47812 1.62841e-17
3245.17571 1.77294e-17
3246.87330 1.53764e-17
3248.57088 1.36097e-17
3250.26847 1.32908e-17
3251.96606 1.00348e-17
3253.66365 1.31470e-17
3255.36124 1.44624e-17
3257.05883 1.53922e-17
3258.75641 1.78054e-17
3260.45400 1.98647e-17
3262.15159 1.83375e-17
3263.84918 1.94685e-17
3265.54677 2.26663e-17
3267.24435 2.19342e-17
3268.94194 1.93574e-17
3270.63953 2.44734e-17
3272.33712 2.98204e-17
3274.03471 2.60938e-17
3275.73229 2.59920e-17
3277.42988 2.18670e-17
3279.12747 1.40049e-17
3280.82506 6.06690e-18
3282.52265 2.36722e-18
3284.22023 7.51139e-18
3285.91782 1.71282e-17
3287.61541 1.69623e-17
3289.31300 1.61227e-17
3291.01059 2.24359e-17
3292.70818 1.78516e-17
3294.40576 6.95763e-18
3296.10335 3.80945e-18
3297.81098 4.94016e-18
3299.50857 5.53985e-18
3301.20616 5.15256e-18
3302.90375 6.84868e-18
3304.60134 1.21827e-17
3306.29892 1.86132e-17
3307.99651 2.00350e-17
3309.69410 1.99613e-17
3311.39169 2.54228e-17
3313.08928 2.82475e-17
3314.78687 2.66367e-17
3316.48445 2.64626e-17
3318.18204 2.94470e-17
3319.87963 2.58564e-17
3321.57722 2.59252e-17
3323.27481 2.70908e-17
3324.97239 2.72364e-17
3326.66998 2.78168e-17
3328.36757 3.03764e-17
3330.06516 3.17286e-17
3331.76275 2.85824e-17
3333.46033 2.28058e-17
3335.15792 1.27181e-17
3336.85551 7.14096e-18
3338.55310 4.77447e-18
3340.25069 8.38758e-19
3341.94827 -8.29620e-19
3343.64586 3.34425e-18
3345.34345 5.34607e-18
3347.04104 8.46690e-18
3348.73863 8.57075e-18
3350.43622 8.53608e-18
3352.13380 8.26686e-18
3353.83139 9.25776e-18
3355.53902 7.81906e-18
3357.23661 1.28989e-17
3358.93420 1.57706e-17
3360.63179 1.74822e-17
3362.32938 1.60005e-17
3364.02697 1.36666e-17
3365.72455 1.10449e-17
3367.42214 1.27135e-17
3369.11973 1.60809e-17
3370.81732 1.72572e-17
3372.51491 1.57680e-17
3374.21249 1.52199e-17
3375.91008 1.29801e-17
3377.60767 1.23421e-17
3379.30526 1.31210e-17
3381.00285 1.12295e-17
3382.70043 7.61153e-18
3384.39802 8.11288e-18
3386.09561 1.19637e-17
3387.79320 1.57289e-17
3389.49079 1.74730e-17
3391.18837 2.30854e-17
3392.88596 2.56862e-17
3394.58355 2.08504e-17
3396.28114 1.75112e-17
3397.97873 1.97097e-17
3399.67632 1.96061e-17
3401.37390 1.84164e-17
3403.07149 2.02206e-17
3404.76908 2.27501e-17
3406.46667 2.17878e-17
3408.16426 2.05847e-17
3409.86184 2.02028e-17
3411.56948 1.65587e-17
3413.26706 1.18378e-17
3414.96465 1.00914e-17
3416.66224 1.13490e-17
3418.35983 1.37924e-17
3420.05742 1.73836e-17
3421.75501 2.08206e-17
3423.45259 1.94554e-17
3425.15018 1.51092e-17
3426.84777 1.37112e-17
3428.54536 9.69100e-18
3430.24295 5.42533e-18
3431.94053 8.03285e-18
3433.63812 1.13797e-17
3435.33571 8.87701e-18
3437.03330 9.61582e-18
3438.73089 1.24110e-17
3440.42847 1.16815e-17
3442.12606 1.19171e-17
3443.82365 1.65991e-17
3445.52124 1.95243e-17
3447.21883 1.67583e-17
3448.91642 1.83338e-17
3450.61400 1.83032e-17
3452.31159 1.38881e-17
3454.00918 1.54039e-17
3455.70677 2.07685e-17
3457.40436 2.16377e-17
3459.10194 2.15388e-17
3460.79953 2.34030e-17
3462.49712 2.03704e-17
3464.19471 1.94031e-17
3465.90234 2.05529e-17
3467.59993 2.23002e-17
3469.29752 2.27014e-17
3470.99511 2.43017e-17
3472.69269 2.46600e-17
3474.39028 2.20483e-17
3476.08787 2.04782e-17
3477.78546 2.03635e-17
3479.48305 2.09646e-17
3481.18063 2.23377e-17
3482.87822 2.29329e-17
3484.57581 2.41097e-17
3486.27340 2.57144e-17
3487.97099 2.38626e-17
3489.66857 1.94506e-17
3491.36616 1.92449e-17
3493.06375 2.05083e-17
3494.76134 1.96797e-17
3496.45893 2.29431e-17
3498.15651 2.70724e-17
3499.85410 2.55331e-17
3501.55169 2.13765e-17
3503.24928 2.02115e-17
3504.94687 1.51575e-17
3506.64446 1.26706e-17
3508.34204 1.69016e-17
3510.03963 2.05468e-17
3511.73722 2.07507e-17
3513.43481 2.27850e-17
3515.13240 2.57794e-17
3516.82998 2.34945e-17
3518.52757 1.98972e-17
3520.22516 1.81993e-17
3521.92275 1.79331e-17
3523.63038 1.50065e-17
3525.32797 1.43213e-17
3527.02556 1.56844e-17
3528.72315 1.70446e-17
3530.42073 1.93618e-17
3532.11832 2.04051e-17
3533.81591 1.94700e-17
3535.51350 1.83721e-17
3537.21109 1.75206e-17
3538.90867 1.46185e-17
3540.60626 1.17443e-17
3542.30385 9.82555e-18
3544.00144 9.22783e-18
3545.69903 1.16064e-17
3547.39661 1.45618e-17
3549.09420 1.70745e-17
3550.79179 2.17746e-17
3552.48938 2.70596e-17
3554.18697 2.75001e-17
3555.88456 2.27609e-17
3557.58214 1.87950e-17
3559.27973 1.67997e-17
3560.97732 1.17645e-17
3562.67491 6.37828e-18
3564.37250 7.09220e-18
3566.07008 1.03176e-17
3567.76767 1.06441e-17
3569.46526 1.20372e-17
3571.16285 1.43901e-17
3572.86044 1.50047e-17
3574.55802 1.57373e-17
3576.25561 1.76429e-17
3577.95320 2.14923e-17
3579.66083 2.65891e-17
3581.35842 3.02980e-17
3583.05601 2.98175e-17
3584.75360 2.86815e-17
3586.45119 2.73083e-17
3588.14877 2.72756e-17
3589.84636 2.79154e-17
3591.54395 2.62240e-17
3593.24154 2.43517e-17
3594.93913 2.31352e-17
3596.63671 1.97347e-17
3598.33430 1.81952e-17
3600.03189 2.03433e-17
3601.72948 2.08084e-17
3603.42707 2.12151e-17
3605.12465 2.10483e-17
3606.82224 1.86321e-17
3608.51983 1.81431e-17
3610.21742 1.78699e-17
3611.91501 1.56935e-17
3613.61260 1.71858e-17
3615.31018 2.00058e-17
3617.00777 2.07343e-17
3618.70536 2.45808e-17
3620.40295 2.89754e-17
3622.10054 3.02593e-17
3623.79812 2.95337e-17
3625.49571 2.68562e-17
3627.19330 2.24124e-17
3628.89089 1.67162e-17
3630.58848 1.18227e-17
3632.28606 9.28978e-18
3633.99370 8.72340e-18
3635.69129 9.81960e-18
3637.38887 1.42786e-17
3639.08646 1.76056e-17
3640.78405 2.07659e-17
3642.48164 2.39610e-17
3644.17923 2.54036e-17
3645.87681 2.35581e-17
3647.57440 2.04858e-17
3649.27199 1.64337e-17
3650.96958 1.58190e-17
3652.66717 1.60604e-17
3654.36475 1.69420e-17
3656.06234 1.89036e-17
3657.75993 2.05452e-17
3659.45752 2.01002e-17
3661.15511 1.79473e-17
3662.85270 1.46219e-17
3664.55028 1.29412e-17
3666.24787 1.18189e-17
3667.94546 1.04576e-17
3669.64305 1.04420e-17
3671.34064 1.20670e-17
3673.03822 1.31120e-17
3674.73581 1.34515e-17
3676.43340 1.41019e-17
3678.13099 1.40742e-17
3679.82858 1.26734e-17
3681.52616 1.14379e-17
3683.22375 1.12865e-17
3684.92134 1.02030e-17
3686.61893 1.11321e-17
3688.31652 1.40545e-17
3690.01410 1.52960e-17
3691.72174 1.66588e-17
3693.41933 1.64177e-17
3695.11691 1.41577e-17
3696.81450 1.16027e-17
3698.51209 9.68791e-18
3700.20968 9.86092e-18
3701.90727 1.13527e-17
3703.60485 1.11562e-17
3705.30244 1.12268e-17
3707.00003 1.29150e-17
3708.69762 1.07687e-17
3710.39521 8.13811e-18
3712.09280 7.54390e-18
3713.79038 6.75764e-18
3715.48797 5.97006e-18
3717.18556 7.82229e-18
3718.88315 1.17105e-17
3720.58074 1.55047e-17
3722.27832 1.51252e-17
3723.97591 1.33818e-17
3725.67350 1.20671e-17
3727.37109 1.05304e-17
3729.06868 9.60447e-18
3730.76626 9.48963e-18
3732.46385 9.33588e-18
3734.16144 1.03896e-17
3735.85903 1.11085e-17
3737.55662 1.11593e-17
3739.25420 1.46033e-17
3740.95179 1.81034e-17
3742.64938 1.77991e-17
3744.34697 1.72818e-17
3746.04456 1.67167e-17
3747.75219 1.51248e-17
3749.44978 1.44427e-17
3751.14737 1.40473e-17
3752.84495 1.11618e-17
3754.54254 7.60230e-18
3756.24013 7.39779e-18
3757.93772 7.29015e-18
3759.63531 5.70025e-18
3761.33289 7.09281e-18
3763.03048 9.97532e-18
3764.72807 9.10618e-18
3766.42566 7.34864e-18
3768.12325 6.69922e-18
3769.82084 6.42999e-18
3771.51842 8.20824e-18
3773.21601 9.37624e-18
3774.91360 8.76391e-18
3776.61119 9.67023e-18
3778.30878 8.96179e-18
3780.00636 5.99680e-18
3781.70395 5.35033e-18
3783.40154 6.03429e-18
3785.09913 7.21028e-18
3786.79672 1.08234e-17
3788.49430 1.30491e-17
3790.19189 1.26423e-17
3791.88948 1.28726e-17
3793.58707 1.19906e-17
3795.28466 8.68743e-18
3796.98224 7.44441e-18
3798.67983 7.94911e-18
3800.37742 9.16140e-18
3802.07501 1.13109e-17
3803.78264 1.28926e-17
3805.48023 1.47632e-17
3807.17782 1.59847e-17
3808.87541 1.44702e-17
3810.57299 1.34745e-17
3812.27058 1.39598e-17
3813.96817 1.21631e-17
3815.66576 1.19007e-17
3817.36335 1.40720e-17
3819.06094 1.34810e-17
3820.75852 1.23553e-17
3822.45611 1.34746e-17
3824.15370 1.33495e-17
3825.85129 1.15583e-17
3827.54888 1.24274e-17
3829.24646 1.52269e-17
3830.94405 1.63070e-17
3832.64164 1.55328e-17
3834.33923 1.40593e-17
3836.03682 1.22844e-17
3837.73440 1.09192e-17
3839.43199 9.49596e-18
3841.12958 8.78602e-18
3842.82717 1.03717e-17
3844.52476 1.11810e-17
3846.22234 1.16881e-17
3847.91993 1.42921e-17
3849.61752 1.74857e-17
3851.31511 1.97365e-17
3853.01270 2.09642e-17
3854.71029 2.01119e-17
3856.40787 1.83115e-17
3858.10546 1.69279e-17
3859.81309 1.68181e-17
3861.51068 1.84539e-17
3863.20827 1.93273e-17
3864.90586 1.95285e-17
3866.60345 2.08335e-17
3868.30103 2.14552e-17
3869.99862 1.98078e-17
3871.69621 1.85099e-17
3873.39380 1.89630e-17
3875.09139 1.93658e-17
3876.78898 1.89091e-17
3878.48656 2.00178e-17
3880.18415 2.21604e-17
3881.88174 2.19284e-17
3883.57933 2.04406e-17
3885.27692 2.02503e-17
3886.97450 2.15885e-17
3888.67209 2.25711e-17
3890.36968 2.17192e-17
3892.06727 2.04285e-17
3893.76486 2.00604e-17
3895.46244 1.95665e-17
3897.16003 1.84325e-17
3898.85762 1.91497e-17
3900.55521 2.14021e-17
3902.25280 2.17517e-17
3903.95039 2.11687e-17
3905.64797 2.22479e-17
3907.34556 2.37521e-17
3909.04315 2.48304e-17
3910.74074 2.61379e-17
3912.43833 2.72421e-17
3914.13591 2.74482e-17
3915.84355 2.72067e-17
3917.54113 2.61220e-17
3919.23872 2.49832e-17
3920.93631 2.36988e-17
3922.63390 2.27198e-17
3924.33149 2.38215e-17
3926.02908 2.52423e-17
3927.72666 2.57577e-17
3929.42425 2.68224e-17
3931.12184 2.67780e-17
3932.81943 2.52571e-17
3934.51702 2.51763e-17
3936.21460 2.53892e-17
3937.91219 2.55044e-17
3939.60978 2.77597e-17
3941.30737 3.00201e-17
3943.00496 3.11631e-17
3944.70254 3.31599e-17
3946.40013 3.39207e-17
3948.09772 3.21131e-17
3949.79531 3.14318e-17
3951.49290 3.23043e-17
3953.19048 3.16334e-17
3954.88807 3.02948e-17
3956.58566 2.98831e-17
3958.28325 2.89027e-17
3959.98084 2.72876e-17
3961.67843 2.69794e-17
3963.37601 2.74728e-17
3965.07360 2.75934e-17
3966.77119 2.69169e-17
3968.46878 2.45410e-17
3970.17641 2.35120e-17
3971.86395 2.42319e-17
3973.57159 2.55703e-17
3975.26918 2.77277e-17
3976.96676 2.93447e-17
3978.66435 2.88209e-17
3980.36194 2.79385e-17
3982.05953 2.77456e-17
3983.75712 2.62649e-17
3985.45470 2.57093e-17
3987.15229 2.76947e-17
3988.84988 2.83708e-17
3990.54747 2.73444e-17
3992.24506 2.63060e-17
3993.94264 2.63532e-17
3995.64023 2.59159e-17
3997.33782 2.49701e-17
3999.03541 2.44544e-17
4000.73300 2.41976e-17
4002.43058 2.33430e-17
4004.12817 2.35590e-17
4005.82576 2.35609e-17
4007.52335 2.16356e-17
4009.22094 2.20471e-17
4010.91853 2.38349e-17
4012.61611 2.29889e-17
4014.31370 2.35035e-17
4016.01129 2.74694e-17
4017.70888 2.92624e-17
4019.40647 2.76721e-17
4021.10405 2.62699e-17
4022.80164 2.51672e-17
4024.49923 2.27761e-17
4026.19682 2.02770e-17
4027.90445 1.99238e-17
4029.60204 2.13684e-17
4031.29963 2.25399e-17
4032.99722 2.38870e-17
4034.69480 2.62265e-17
4036.39239 2.85879e-17
4038.08998 2.84558e-17
4039.78757 2.77361e-17
4041.48516 2.69034e-17
4043.18274 2.57310e-17
4044.88033 2.39740e-17
4046.57792 2.23256e-17
4048.27551 2.16160e-17
4049.97310 2.24566e-17
4051.67068 2.17797e-17
4053.36827 2.10977e-17
4055.06586 2.19808e-17
4056.76345 2.27016e-17
4058.46104 2.15256e-17
4060.15862 2.13790e-17
4061.85621 2.20447e-17
4063.55380 2.05452e-17
4065.25139 1.86788e-17
4066.94898 1.88646e-17
4068.64657 1.96795e-17
4070.34415 1.98890e-17
4072.04174 2.13011e-17
4073.73933 2.30650e-17
4075.43692 2.33778e-17
4077.13451 2.32436e-17
4078.83209 2.39110e-17
4080.52968 2.48815e-17
4082.22727 2.45294e-17
4083.93490 2.40272e-17
4085.63249 2.42201e-17
4087.33008 2.27861e-17
4089.02767 2.14123e-17
4090.72526 2.21487e-17
4092.42284 2.20444e-17
4094.12043 2.02560e-17
4095.81802 1.99307e-17
4097.51561 1.89089e-17
4099.21320 1.63196e-17
4100.91078 1.21868e-17
4102.60837 9.34062e-18
4104.30596 9.25397e-18
4106.00355 1.15584e-17
4107.70114 1.34481e-17
4109.39872 1.78233e-17
4111.09631 2.17168e-17
4112.79390 2.14860e-17
4114.49149 1.94547e-17
4116.18908 1.83548e-17
4117.88667 1.59238e-17
4119.58425 1.36050e-17
4121.28184 1.21240e-17
4122.97943 1.21582e-17
4124.67702 1.29946e-17
4126.37461 1.39359e-17
4128.07219 1.43004e-17
4129.76978 1.65507e-17
4131.46737 1.84728e-17
4133.16496 1.87953e-17
4134.86255 1.94832e-17
4136.56013 2.00398e-17
4138.25772 1.91476e-17
4139.96536 1.74549e-17
4141.66294 1.60776e-17
4143.36053 1.47417e-17
4145.05812 1.53604e-17
4146.75571 1.73280e-17
4148.45330 1.89647e-17
4150.15088 1.99614e-17
4151.84847 2.11481e-17
4153.54606 2.03107e-17
4155.24365 1.71626e-17
4156.94124 1.50295e-17
4158.63882 1.44717e-17
4160.33641 1.46541e-17
4162.03400 1.50358e-17
4163.73159 1.60866e-17
4165.42918 1.62343e-17
4167.12677 1.54990e-17
4168.82435 1.42402e-17
4170.52194 1.46716e-17
4172.21953 1.56872e-17
4173.91712 1.74120e-17
4175.61471 1.99953e-17
4177.31229 2.09089e-17
4179.00988 2.13358e-17
4180.70747 2.14050e-17
4182.40506 2.05358e-17
4184.10265 1.94259e-17
4185.80023 2.02010e-17
4187.49782 1.99871e-17
4189.19541 1.89078e-17
4190.89300 1.77138e-17
4192.59059 1.68900e-17
4194.28817 1.71002e-17
4195.99581 1.65529e-17
4197.69340 1.67691e-17
4199.39098 1.79424e-17
4201.08857 1.84138e-17
4202.78616 1.72161e-17
4204.48375 1.62767e-17
4206.18134 1.54613e-17
4207.87892 1.42641e-17
4209.57651 1.31583e-17
4211.27410 1.42520e-17
4212.97169 1.74137e-17
4214.66928 1.89806e-17
4216.36686 1.85357e-17
4218.06445 1.74182e-17
4219.76204 1.47278e-17
4221.45963 1.19225e-17
4223.15722 1.14766e-17
4224.85481 1.26346e-17
4226.55239 1.31914e-17
4228.24998 1.40042e-17
4229.94757 1.45525e-17
4231.64516 1.47876e-17
4233.34275 1.51377e-17
4235.04033 1.74207e-17
4236.73792 2.12675e-17
4238.43551 2.31159e-17
4240.13310 2.36886e-17
4241.83069 2.39380e-17
4243.52827 2.26130e-17
4245.22586 1.99021e-17
4246.92345 1.84159e-17
4248.62104 1.64324e-17
4250.32867 1.54942e-17
4252.02626 1.66846e-17
4253.72385 1.71937e-17
4255.42144 1.74923e-17
4257.11902 1.87426e-17
4258.81661 1.94743e-17
4260.51420 1.92821e-17
4262.21179 1.88140e-17
4263.90938 1.89992e-17
4265.60696 1.88683e-17
4267.30455 1.86851e-17
4269.00214 1.84105e-17
4270.69973 1.83999e-17
4272.39732 1.87621e-17
4274.09491 1.94243e-17
4275.79249 1.93170e-17
4277.49008 1.83004e-17
4279.18767 1.76825e-17
4280.88526 1.61689e-17
4282.58285 1.46409e-17
4284.28043 1.38640e-17
4285.97802 1.43060e-17
4287.67561 1.49191e-17
4289.37320 1.65373e-17
4291.07079 1.83291e-17
4292.76837 1.97182e-17
4294.46596 2.06739e-17
4296.16355 2.03575e-17
4297.86114 1.80179e-17
4299.55873 1.67340e-17
4301.25631 1.62522e-17
4302.95390 1.52227e-17
4304.65149 1.46622e-17
4306.34908 1.56704e-17
4308.04667 1.69749e-17
4309.75430 1.80436e-17
4311.45189 1.85429e-17
4313.14948 1.92177e-17
4314.84706 1.89562e-17
4316.54465 1.77941e-17
4318.24224 1.60577e-17
4319.93983 1.48315e-17
4321.63742 1.40047e-17
4323.33500 1.34589e-17
4325.03259 1.39596e-17
4326.73018 1.40621e-17
4328.42777 1.41636e-17
4330.12536 1.34627e-17
4331.82295 1.24720e-17
4333.52053 1.18212e-17
4335.21812 1.27464e-17
4336.91571 1.41024e-17
4338.61330 1.52673e-17
4340.31089 1.67656e-17
4342.00847 1.68195e-17
4343.70606 1.63814e-17
4345.40365 1.63513e-17
4347.10124 1.63569e-17
4348.79883 1.62564e-17
4350.49641 1.68818e-17
4352.19400 1.72966e-17
4353.89159 1.67428e-17
4355.58918 1.72669e-17
4357.28677 1.80103e-17
4358.98436 1.69413e-17
4360.68194 1.52495e-17
4362.37953 1.34269e-17
4364.08716 1.26716e-17
4365.78475 1.27957e-17
4367.48234 1.36949e-17
4369.17993 1.57969e-17
4370.87752 1.76260e-17
4372.57510 1.79189e-17
4374.27269 1.82174e-17
4375.97028 1.76911e-17
4377.66787 1.58352e-17
4379.36546 1.60670e-17
4381.06305 1.69733e-17
4382.76063 1.57517e-17
4384.45822 1.52300e-17
4386.15581 1.55614e-17
4387.85340 1.43095e-17
4389.55099 1.18628e-17
4391.24857 1.12679e-17
4392.94616 1.10616e-17
4394.64375 1.13490e-17
4396.34134 1.26318e-17
4398.03893 1.44350e-17
4399.73651 1.63024e-17
4401.43410 1.85940e-17
4403.13169 1.87347e-17
4404.82928 1.75166e-17
4406.52687 1.61837e-17
4408.22445 1.50155e-17
4409.92204 1.37175e-17
4411.61963 1.43749e-17
4413.31722 1.63038e-17
4415.01481 1.80211e-17
4416.71240 1.81997e-17
4418.42003 1.78235e-17
4420.10757 1.59847e-17
4421.81520 1.41798e-17
4423.51279 1.38101e-17
4425.21038 1.45387e-17
4426.90797 1.50436e-17
4428.60556 1.60584e-17
4430.30315 1.67511e-17
4432.00073 1.79408e-17
4433.69832 1.88279e-17
4435.39591 1.97998e-17
4437.09350 2.00048e-17
4438.79109 2.10789e-17
4440.48867 2.14474e-17
4442.18626 2.09068e-17
4443.88385 2.03393e-17
4445.58144 2.06842e-17
4447.27903 2.02693e-17
4448.97661 1.94069e-17
4450.67420 1.93282e-17
4452.37179 1.85745e-17
4454.06938 1.82026e-17
4455.76697 1.79810e-17
4457.46455 1.73721e-17
4459.16214 1.74650e-17
4460.85973 1.90494e-17
4462.55732 1.93458e-17
4464.25491 1.77647e-17
4465.95250 1.73532e-17
4467.65008 1.69244e-17
4469.34767 1.42843e-17
4471.04526 1.41107e-17
4472.74285 1.64716e-17
4474.44044 1.75906e-17
4476.13802 1.80031e-17
4477.84566 1.93042e-17
4479.54324 1.86087e-17
4481.24083 1.72094e-17
4482.93842 1.70038e-17
4484.63601 1.70177e-17
4486.33360 1.73565e-17
4488.03119 1.93971e-17
4489.72877 2.09853e-17
4491.42636 2.24464e-17
4493.12395 2.38608e-17
4494.82154 2.37653e-17
4496.51913 2.24598e-17
4498.21671 2.20319e-17
4499.91430 2.15661e-17
4501.61189 2.10529e-17
4503.30948 2.09378e-17
4505.00707 2.07135e-17
4506.70465 2.07671e-17
4508.40224 2.11582e-17
4510.09983 2.19709e-17
4511.79742 2.37614e-17
4513.49501 2.45954e-17
4515.19259 2.44885e-17
4516.89018 2.39250e-17
4518.58777 2.37952e-17
4520.28536 2.36191e-17
4521.98295 2.31768e-17
4523.68054 2.25817e-17
4525.37812 2.22355e-17
4527.07571 2.18223e-17
4528.77330 2.07523e-17
4530.47089 2.09440e-17
4532.17852 2.19565e-17
4533.87611 2.21504e-17
4535.57370 2.11180e-17
4537.27129 2.02189e-17
4538.96887 1.99550e-17
4540.66646 2.04342e-17
4542.36405 2.17380e-17
4544.06164 2.32058e-17
4545.75923 2.44333e-17
4547.45681 2.39212e-17
4549.15440 2.19134e-17
4550.85199 2.00319e-17
4552.54958 1.97513e-17
4554.24717 2.05978e-17
4555.94475 2.24970e-17
4557.64234 2.41109e-17
4559.33993 2.50602e-17
4561.03752 2.47946e-17
4562.73511 2.33064e-17
4564.43269 2.19968e-17
4566.13028 2.27056e-17
4567.82787 2.34597e-17
4569.52546 2.41401e-17
4571.22305 2.59779e-17
4572.92064 2.87320e-17
4574.61822 2.88837e-17
4576.31581 2.82471e-17
4578.01340 2.93151e-17
4579.71099 2.90340e-17
4581.40858 2.70808e-17
4583.10616 2.77053e-17
4584.80375 2.82351e-17
4586.50134 2.58440e-17
4588.20897 2.53203e-17
4589.90656 2.59062e-17
4591.60415 2.51289e-17
4593.30174 2.50699e-17
4594.99933 2.62612e-17
4596.69691 2.72977e-17
4598.39450 2.81968e-17
4600.09209 2.85646e-17
4601.78968 2.86042e-17
4603.48727 2.82688e-17
4605.18485 2.78752e-17
4606.88244 2.77812e-17
4608.58003 2.75007e-17
4610.27762 2.71512e-17
4611.97521 2.77944e-17
4613.67279 2.76828e-17
4615.37038 2.61043e-17
4617.06797 2.47520e-17
4618.76556 2.43490e-17
4620.46315 2.35437e-17
4622.16074 2.43309e-17
4623.85832 2.61222e-17
4625.55591 2.68825e-17
4627.25350 2.72448e-17
4628.95109 2.79121e-17
4630.64868 2.62653e-17
4632.34626 2.41353e-17
4634.04385 2.43296e-17
4635.74144 2.42797e-17
4637.43903 2.39922e-17
4639.13662 2.55016e-17
4640.83420 2.60641e-17
4642.53179 2.53321e-17
4644.23943 2.59148e-17
4645.93701 2.62762e-17
4647.63460 2.51909e-17
4649.33219 2.51535e-17
4651.02978 2.56081e-17
4652.72737 2.40996e-17
4654.42495 2.18775e-17
4656.12254 2.17331e-17
4657.82013 2.21188e-17
4659.51772 2.27778e-17
4661.21531 2.37373e-17
4662.91289 2.42809e-17
4664.61048 2.39375e-17
4666.30807 2.25983e-17
4668.00566 2.02890e-17
4669.70325 1.95715e-17
4671.40083 1.97485e-17
4673.09842 1.93518e-17
4674.79601 2.03200e-17
4676.49360 2.20744e-17
4678.19119 2.32627e-17
4679.88878 2.40843e-17
4681.58636 2.43973e-17
4683.28395 2.39855e-17
4684.98154 2.28870e-17
4686.67913 2.15064e-17
4688.37672 2.09799e-17
4690.07430 2.18862e-17
4691.77189 2.16972e-17
4693.46948 2.17449e-17
4695.16707 2.25188e-17
4696.86466 2.20913e-17
4698.56224 2.11032e-17
4700.26988 2.09856e-17
4701.96747 2.01065e-17
4703.66505 1.83802e-17
4705.36264 1.70461e-17
4707.06023 1.45645e-17
4708.75782 1.53167e-17
4710.45541 1.54634e-17
4712.15299 1.52258e-17
4713.85058 1.61798e-17
4715.54817 1.77531e-17
4717.24576 1.58928e-17
4718.94335 1.64110e-17
4720.64093 1.73210e-17
4722.33852 1.63588e-17
4724.03611 1.61558e-17
4725.73370 1.71043e-17
4727.43129 1.67330e-17
4729.12888 1.58425e-17
4730.82646 1.64094e-17
4732.52405 1.71238e-17
4734.22164 1.75282e-17
4735.91923 1.70127e-17
4737.61682 1.72155e-17
4739.31440 1.80674e-17
4741.01199 1.81839e-17
4742.70958 1.76436e-17
4744.40717 1.79802e-17
4746.10476 1.69806e-17
4747.80234 1.45241e-17
4749.49993 1.21147e-17
4751.19752 1.14313e-17
4752.89511 1.21285e-17
4754.59270 1.23230e-17
4756.30033 1.12013e-17
4757.99792 1.10925e-17
4759.69551 1.04440e-17
4761.39309 9.19379e-18
4763.09068 1.05831e-17
4764.78827 1.33394e-17
4766.48586 1.40535e-17
4768.18345 1.46308e-17
4769.88103 1.60149e-17
4771.57862 1.45617e-17
4773.27621 1.30903e-17
4774.97380 1.28330e-17
4776.67139 1.20037e-17
4778.36897 1.01994e-17
4780.06656 1.04728e-17
4781.76415 1.12043e-17
4783.46174 1.27337e-17
4785.15933 1.39341e-17
4786.85692 1.46664e-17
4788.55450 1.49266e-17
4790.25209 1.47890e-17
4791.94968 1.41524e-17
4793.64727 1.39590e-17
4795.34486 1.30395e-17
4797.04244 1.25232e-17
4798.74003 1.35840e-17
4800.43762 1.45562e-17
4802.13521 1.47216e-17
4803.83280 1.57283e-17
4805.53038 1.52565e-17
4807.22797 1.45819e-17
4808.92556 1.39749e-17
4810.62315 1.27745e-17
4812.32074 1.11372e-17
4814.02837 1.12369e-17
4815.72596 1.12732e-17
4817.42355 1.13365e-17
4819.12113 1.18338e-17
4820.81872 1.22981e-17
4822.51631 1.32466e-17
4824.21390 1.31126e-17
4825.91149 1.26262e-17
4827.60907 1.35955e-17
4829.30666 1.50135e-17
4831.00425 1.51790e-17
4832.70184 1.52747e-17
4834.39943 1.45379e-17
4836.09702 1.32968e-17
4837.79460 1.20223e-17
4839.49219 1.10415e-17
4841.18978 1.14617e-17
4842.88737 1.16920e-17
4844.58496 1.21864e-17
4846.28254 1.38907e-17
4847.98013 1.41602e-17
4849.67772 1.29044e-17
4851.37531 1.32448e-17
4853.07290 1.28121e-17
4854.77048 1.14723e-17
4856.46807 1.20189e-17
4858.16566 1.22059e-17
4859.86325 1.08967e-17
4861.56084 1.05677e-17
4863.25842 1.07737e-17
4864.95601 1.04703e-17
4866.65360 1.08401e-17
4868.36123 1.22926e-17
4870.05882 1.28286e-17
4871.75641 1.28842e-17
4873.45400 1.30779e-17
4875.15159 1.30126e-17
4876.84917 1.33550e-17
4878.54676 1.37679e-17
4880.24435 1.38350e-17
4881.94194 1.33673e-17
4883.63953 1.31494e-17
4885.33712 1.23589e-17
4887.03470 1.19546e-17
4888.73229 1.23237e-17
4890.42988 1.28153e-17
4892.12747 1.27726e-17
4893.82506 1.29696e-17
4895.52264 1.38383e-17
4897.22023 1.33796e-17
4898.91782 1.31790e-17
4900.61541 1.38815e-17
4902.31300 1.35605e-17
4904.01058 1.29108e-17
4905.70817 1.34401e-17
4907.40576 1.42650e-17
4909.10335 1.50896e-17
4910.80094 1.54962e-17
4912.49852 1.42539e-17
4914.19611 1.31843e-17
4915.89370 1.32159e-17
4917.59129 1.39601e-17
4919.28888 1.44725e-17
4920.98647 1.47497e-17
4922.68405 1.45852e-17
4924.39169 1.43903e-17
4926.07923 1.39633e-17
4927.78686 1.34720e-17
4929.48445 1.31752e-17
4931.18204 1.31126e-17
4932.87963 1.33543e-17
4934.57721 1.34774e-17
4936.27480 1.35269e-17
4937.97239 1.39915e-17
4939.66998 1.50882e-17
4941.36757 1.56957e-17
4943.06516 1.56289e-17
4944.76274 1.56943e-17
4946.46033 1.66001e-17
4948.15792 1.72152e-17
4949.85551 1.64250e-17
4951.55310 1.53731e-17
4953.25068 1.54332e-17
4954.94827 1.59384e-17
4956.64586 1.59641e-17
4958.34345 1.56414e-17
4960.04104 1.50740e-17
4961.73862 1.37985e-17
4963.43621 1.29655e-17
4965.13380 1.36836e-17
4966.83139 1.49304e-17
4968.52898 1.50992e-17
4970.22656 1.47232e-17
4971.92415 1.41942e-17
4973.62174 1.34496e-17
4975.31933 1.30445e-17
4977.01692 1.28025e-17
4978.71451 1.24810e-17
4980.41209 1.23639e-17
4982.11973 1.29785e-17
4983.81731 1.37466e-17
4985.51490 1.42060e-17
4987.21249 1.41559e-17
4988.91008 1.49495e-17
4990.60767 1.54947e-17
4992.30526 1.54207e-17
4994.00284 1.52881e-17
4995.70043 1.55697e-17
4997.39802 1.51403e-17
4999.09561 1.45590e-17
5000.79320 1.42262e-17
5002.49078 1.39570e-17
5004.18837 1.41766e-17
5005.88596 1.53146e-17
5007.58355 1.64018e-17
5009.28114 1.62345e-17
5010.97872 1.57433e-17
5012.67631 1.56047e-17
5014.37390 1.51016e-17
5016.07149 1.38206e-17
5017.76908 1.35153e-17
5019.46666 1.38668e-17
5021.16425 1.40840e-17
5022.86184 1.41332e-17
5024.55943 1.43887e-17
5026.25702 1.43654e-17
5027.95461 1.45573e-17
5029.65219 1.43807e-17
5031.34978 1.44597e-17
5033.04737 1.47431e-17
5034.74496 1.48410e-17
5036.45259 1.45445e-17
5038.15018 1.47871e-17
5039.84777 1.45780e-17
5041.54535 1.39746e-17
5043.24294 1.35326e-17
5044.94053 1.36250e-17
5046.63812 1.45139e-17
5048.33571 1.57873e-17
5050.03330 1.68067e-17
5051.73088 1.76562e-17
5053.42847 1.82209e-17
5055.12606 1.79739e-17
5056.82365 1.80273e-17
5058.52124 1.82472e-17
5060.21882 1.76780e-17
5061.91641 1.65098e-17
5063.61400 1.56313e-17
5065.31159 1.49823e-17
5067.00918 1.50162e-17
5068.70676 1.54633e-17
5070.40435 1.57857e-17
5072.10194 1.62098e-17
5073.79953 1.60903e-17
5075.49712 1.54875e-17
5077.19471 1.49461e-17
5078.89229 1.52644e-17
5080.58988 1.55485e-17
5082.28747 1.67843e-17
5083.98506 1.78295e-17
5085.68265 1.77358e-17
5087.38023 1.62818e-17
5089.07782 1.51924e-17
5090.77541 1.43401e-17
5092.47300 1.43108e-17
5094.18063 1.46120e-17
5095.87822 1.46144e-17
5097.57581 1.43293e-17
5099.27340 1.40734e-17
5100.97098 1.37447e-17
5102.66857 1.43333e-17
5104.36616 1.49337e-17
5106.06375 1.50166e-17
5107.76134 1.55734e-17
5109.45892 1.62658e-17
5111.15651 1.68026e-17
5112.85410 1.75396e-17
5114.55169 1.76326e-17
5116.24928 1.67633e-17
5117.94686 1.64936e-17
5119.64445 1.61822e-17
5121.34204 1.52825e-17
5123.03963 1.45649e-17
5124.73722 1.46334e-17
5126.43480 1.50395e-17
5128.13239 1.58447e-17
5129.82998 1.66599e-17
5131.52757 1.74045e-17
5133.22516 1.71149e-17
5134.92275 1.58045e-17
5136.62033 1.51884e-17
5138.31792 1.51416e-17
5140.01551 1.48059e-17
5141.71310 1.52047e-17
5143.41069 1.63343e-17
5145.10827 1.66820e-17
5146.80586 1.68646e-17
5148.50345 1.73732e-17
5150.21108 1.69950e-17
5151.90867 1.69906e-17
5153.60626 1.75345e-17
5155.30385 1.77256e-17
5157.00144 1.77926e-17
5158.69902 1.85243e-17
5160.39661 1.88974e-17
5162.09420 1.89236e-17
5163.79179 1.82881e-17
5165.48938 1.74549e-17
5167.18696 1.71176e-17
5168.88455 1.72166e-17
5170.58214 1.68419e-17
5172.27973 1.72314e-17
5173.97732 1.78559e-17
5175.67490 1.81554e-17
5177.37249 1.79319e-17
5179.07008 1.78921e-17
5180.76767 1.75700e-17
5182.46526 1.71022e-17
5184.16285 1.69458e-17
5185.86043 1.67975e-17
5187.55802 1.64770e-17
5189.25561 1.71632e-17
5190.95320 1.81480e-17
5192.65079 1.77500e-17
5194.34837 1.69459e-17
5196.04596 1.68233e-17
5197.74355 1.60942e-17
5199.44114 1.48203e-17
5201.13873 1.45861e-17
5202.83631 1.52029e-17
5204.53390 1.52637e-17
5206.24154 1.51632e-17
5207.93912 1.54598e-17
5209.63671 1.63275e-17
5211.33430 1.73301e-17
5213.03189 1.79710e-17
5214.72948 1.86925e-17
5216.42706 1.94165e-17
5218.12465 1.92381e-17
5219.82224 1.86917e-17
5221.51983 1.85135e-17
5223.21742 1.76821e-17
5224.91500 1.69102e-17
5226.61259 1.66887e-17
5228.31018 1.69014e-17
5230.00777 1.72342e-17
5231.70536 1.75917e-17
5233.40294 1.69837e-17
5235.10053 1.64115e-17
5236.79812 1.64812e-17
5238.49571 1.70684e-17
5240.19330 1.80620e-17
5241.89089 1.89168e-17
5243.58847 1.85025e-17
5245.28606 1.80963e-17
5246.98365 1.80360e-17
5248.68124 1.83153e-17
5250.37883 1.91708e-17
5252.07641 2.01457e-17
5253.77400 1.97922e-17
5255.47159 1.93032e-17
5257.16918 1.92372e-17
5258.86677 1.91177e-17
5260.56435 1.85519e-17
5262.27199 1.83237e-17
5263.96958 1.86740e-17
5265.66716 1.91331e-17
5267.36475 1.91462e-17
5269.06234 1.92357e-17
5270.75993 1.95528e-17
5272.45752 1.92270e-17
5274.15510 1.86711e-17
5275.85269 1.84448e-17
5277.55028 1.85307e-17
5279.24787 1.92016e-17
5280.94546 2.04137e-17
5282.64304 2.09839e-17
5284.34063 2.14605e-17
5286.03822 2.22320e-17
5287.73581 2.24239e-17
5289.43340 2.28014e-17
5291.13099 2.39761e-17
5292.82857 2.40474e-17
5294.52616 2.32097e-17
5296.22375 2.27826e-17
5297.92134 2.23199e-17
5299.61893 2.13829e-17
5301.31651 2.12169e-17
5303.01410 2.18184e-17
5304.71169 2.19579e-17
5306.40928 2.11613e-17
5308.10687 2.04402e-17
5309.80445 2.02279e-17
5311.50204 1.98617e-17
5313.19963 1.99469e-17
5314.89722 2.07829e-17
5316.59481 2.09472e-17
5318.30244 2.01866e-17
5320.00003 1.98901e-17
5321.69762 1.99928e-17
5323.39520 2.01131e-17
5325.09279 2.02320e-17
5326.79038 1.99866e-17
5328.48797 1.94396e-17
5330.18556 1.90591e-17
5331.88314 1.89450e-17
5333.58073 1.92012e-17
5335.27832 1.97695e-17
5336.97591 2.02350e-17
5338.67350 2.00050e-17
5340.37109 1.97152e-17
5342.06867 1.96291e-17
5343.76626 1.98330e-17
5345.46385 2.03319e-17
5347.16144 2.10477e-17
5348.85903 2.08558e-17
5350.55661 2.05289e-17
5352.25420 2.07352e-17
5353.95179 2.09391e-17
5355.64938 2.09786e-17
5357.34697 2.17567e-17
5359.04455 2.27558e-17
5360.74214 2.31213e-17
5362.43973 2.29088e-17
5364.13732 2.22333e-17
5365.83491 2.13536e-17
5367.53249 2.08631e-17
5369.23008 2.03765e-17
5370.92767 2.01389e-17
5372.63530 2.04107e-17
5374.33289 2.02988e-17
5376.03048 1.97979e-17
5377.72807 2.00266e-17
5379.42566 2.06889e-17
5381.12324 2.06917e-17
5382.82083 2.05418e-17
5384.51842 2.00894e-17
5386.21601 1.95488e-17
5387.91360 1.94852e-17
5389.61118 1.95463e-17
5391.30877 1.93654e-17
5393.00636 1.94740e-17
5394.70395 1.88313e-17
5396.40154 1.83752e-17
5398.09913 1.89662e-17
5399.79671 1.97000e-17
5401.49430 1.98878e-17
5403.19189 2.05146e-17
5404.88948 2.08906e-17
5406.58707 2.09202e-17
5408.28465 2.05207e-17
5409.98224 1.99428e-17
5411.67983 2.00512e-17
5413.37742 1.99780e-17
5415.07501 1.92127e-17
5416.77259 1.79747e-17
5418.47018 1.65523e-17
5420.16777 1.59784e-17
5421.86536 1.68956e-17
5423.56295 1.85165e-17
5425.26053 2.00050e-17
5426.95812 2.08722e-17
5428.66576 2.08734e-17
5430.35330 1.98736e-17
5432.06093 1.85429e-17
5433.75852 1.79309e-17
5435.45611 1.82540e-17
5437.15370 1.88947e-17
5438.85128 1.91270e-17
5440.54887 1.88937e-17
5442.24646 1.89549e-17
5443.94405 1.90041e-17
5445.64164 1.82204e-17
5447.33923 1.79727e-17
5449.03681 1.89681e-17
5450.73440 2.00034e-17
5452.43199 2.03751e-17
5454.12958 2.00645e-17
5455.82717 1.99240e-17
5457.52475 2.02500e-17
5459.22234 2.00782e-17
5460.91993 1.96697e-17
5462.61752 1.98781e-17
5464.31511 2.03585e-17
5466.01269 2.01310e-17
5467.71028 1.96399e-17
5469.40787 1.88677e-17
5471.10546 1.84394e-17
5472.80305 1.84138e-17
5474.50063 1.70694e-17
5476.19822 1.46584e-17
5477.89581 1.25659e-17
5479.59340 1.17954e-17
5481.29099 1.18343e-17
5482.98858 1.33625e-17
5484.68616 1.58865e-17
5486.39380 1.82769e-17
5488.09138 1.95487e-17
5489.78897 2.01255e-17
5491.48656 2.01484e-17
5493.18415 1.96453e-17
5494.88174 1.97244e-17
5496.57932 2.01440e-17
5498.27691 2.00612e-17
5499.97450 1.99008e-17
5501.67209 1.90238e-17
5503.36968 1.72906e-17
5505.06727 1.64390e-17
5506.76485 1.65388e-17
5508.46244 1.68413e-17
5510.16003 1.80866e-17
5511.85762 1.91176e-17
5513.55521 1.89242e-17
5515.25279 1.86935e-17
5516.95038 1.85789e-17
5518.64797 1.83129e-17
5520.34556 1.82346e-17
5522.04315 1.81451e-17
5523.74073 1.78036e-17
5525.43832 1.78854e-17
5527.13591 1.86711e-17
5528.83350 1.93716e-17
5530.53109 1.94044e-17
5532.22868 1.91378e-17
5533.92626 1.91320e-17
5535.62385 1.91868e-17
5537.32144 1.93879e-17
5539.01903 1.95943e-17
5540.72666 2.02231e-17
5542.42425 2.11190e-17
5544.12184 2.05198e-17
5545.81942 1.91150e-17
5547.51701 1.86465e-17
5549.21460 1.82273e-17
5550.91219 1.72814e-17
5552.60978 1.72171e-17
5554.30737 1.80479e-17
5556.00495 1.84698e-17
5557.70254 1.83364e-17
5559.40013 1.78791e-17
5561.09772 1.74973e-17
5562.79531 1.76484e-17
5564.49289 1.80954e-17
5566.19048 1.79615e-17
5567.88807 1.75282e-17
5569.58566 1.69446e-17
5571.28325 1.61321e-17
5572.98083 1.61554e-17
5574.67842 1.71540e-17
5576.37601 1.74426e-17
5578.07360 1.77230e-17
5579.77119 1.83692e-17
5581.46877 1.76867e-17
5583.16636 1.70332e-17
5584.86395 1.78266e-17
5586.56154 1.81016e-17
5588.25913 1.70160e-17
5589.95672 1.59295e-17
5591.65430 1.48447e-17
5593.35189 1.37869e-17
5595.04948 1.38165e-17
5596.74707 1.50227e-17
5598.44466 1.66090e-17
5600.15229 1.74255e-17
5601.84988 1.77045e-17
5603.54747 1.78786e-17
5605.24505 1.70585e-17
5606.94264 1.61541e-17
5608.64023 1.63989e-17
5610.33782 1.68201e-17
5612.03541 1.63592e-17
5613.73299 1.59376e-17
5615.43058 1.57714e-17
5617.12817 1.49320e-17
5618.82576 1.38321e-17
5620.52335 1.38803e-17
5622.22093 1.48261e-17
5623.91852 1.53116e-17
5625.61611 1.50549e-17
5627.31370 1.43147e-17
5629.01129 1.36292e-17
5630.70887 1.34078e-17
5632.40646 1.40155e-17
5634.10405 1.50319e-17
5635.80164 1.53755e-17
5637.49923 1.47952e-17
5639.19682 1.37203e-17
5640.89440 1.30411e-17
5642.59199 1.32344e-17
5644.28958 1.34195e-17
5645.98717 1.31774e-17
5647.68476 1.32997e-17
5649.38234 1.28492e-17
5651.07993 1.18227e-17
5652.77752 1.22082e-17
5654.48515 1.30372e-17
5656.18274 1.31314e-17
5657.88033 1.32360e-17
5659.57792 1.33179e-17
5661.27551 1.32651e-17
5662.97309 1.34702e-17
5664.67068 1.35269e-17
5666.36827 1.29804e-17
5668.06586 1.24887e-17
5669.76345 1.24924e-17
5671.46103 1.29560e-17
5673.15862 1.36757e-17
5674.85621 1.45678e-17
5676.55380 1.53939e-17
5678.25139 1.55814e-17
5679.94897 1.52083e-17
5681.64656 1.47238e-17
5683.34415 1.43131e-17
5685.04174 1.37301e-17
5686.73933 1.34491e-17
5688.43691 1.36607e-17
5690.13450 1.35275e-17
5691.83209 1.36735e-17
5693.52968 1.40892e-17
5695.22727 1.39943e-17
5696.92486 1.40235e-17
5698.62244 1.48996e-17
5700.32003 1.56998e-17
5702.01762 1.67232e-17
5703.71521 1.80011e-17
5705.41280 1.80591e-17
5707.11038 1.72482e-17
5708.80797 1.62986e-17
5710.50556 1.49325e-17
5712.21319 1.38116e-17
5713.91078 1.31577e-17
5715.60837 1.28564e-17
5717.30596 1.30630e-17
5719.00355 1.36532e-17
5720.70113 1.45130e-17
5722.39872 1.55682e-17
5724.09631 1.70740e-17
5725.79390 1.75593e-17
5727.49149 1.75057e-17
5729.18907 1.78060e-17
5730.88666 1.82710e-17
5732.58425 1.77855e-17
5734.28184 1.66181e-17
5735.97943 1.58706e-17
5737.67701 1.57107e-17
5739.37460 1.52550e-17
5741.07219 1.44742e-17
5742.76978 1.53169e-17
5744.46737 1.61694e-17
5746.16496 1.55779e-17
5747.86254 1.56445e-17
5749.56013 1.66526e-17
5751.25772 1.62317e-17
5752.95531 1.56658e-17
5754.65290 1.65531e-17
5756.35048 1.72664e-17
5758.04807 1.64925e-17
5759.74566 1.60573e-17
5761.44325 1.63535e-17
5763.14084 1.63355e-17
5764.83842 1.64556e-17
5766.53601 1.67121e-17
5768.24365 1.59073e-17
5769.94123 1.53475e-17
5771.63882 1.57325e-17
5773.33641 1.61917e-17
5775.03400 1.68019e-17
5776.73159 1.77606e-17
5778.42917 1.78590e-17
5780.12676 1.69731e-17
5781.82435 1.64842e-17
5783.52194 1.64249e-17
5785.21953 1.70144e-17
5786.91711 1.80604e-17
5788.61470 1.86385e-17
5790.31229 1.83782e-17
5792.00988 1.87311e-17
5793.70747 1.92990e-17
5795.40506 1.90357e-17
5797.10264 1.85885e-17
5798.80023 1.80619e-17
5800.49782 1.79335e-17
5802.19541 1.74904e-17
5803.89300 1.70168e-17
5805.59058 1.70958e-17
5807.28817 1.74144e-17
5808.98576 1.66200e-17
5810.68335 1.65682e-17
5812.38094 1.68856e-17
5814.07852 1.66898e-17
5815.77611 1.78463e-17
5817.47370 1.97538e-17
5819.17129 2.06837e-17
5820.86888 2.05729e-17
5822.57651 2.08213e-17
5824.27410 2.05964e-17
5825.97169 1.99726e-17
5827.66927 1.84743e-17
5829.36686 1.74103e-17
5831.06445 1.69654e-17
5832.76204 1.70144e-17
5834.45963 1.70006e-17
5836.15721 1.71694e-17
5837.85480 1.71849e-17
5839.55239 1.75655e-17
5841.24998 1.73171e-17
5842.94757 1.75750e-17
5844.64515 1.88787e-17
5846.34274 2.01652e-17
5848.04033 2.11101e-17
5849.73792 2.21174e-17
5851.43551 2.17536e-17
5853.13310 1.99047e-17
5854.83068 1.85709e-17
5856.52827 1.74106e-17
5858.22586 1.63726e-17
5859.92345 1.67775e-17
5861.62104 1.70287e-17
5863.31862 1.68108e-17
5865.01621 1.67773e-17
5866.71380 1.76325e-17
5868.41139 1.88745e-17
5870.10898 1.97754e-17
5871.80656 2.01732e-17
5873.50415 2.00675e-17
5875.20174 1.96767e-17
5876.89933 1.93379e-17
5878.60696 1.90436e-17
5880.30455 1.86176e-17
5882.00214 1.82177e-17
5883.69973 1.81662e-17
5885.39731 1.84180e-17
5887.09490 1.86959e-17
5888.79249 1.88350e-17
5890.49008 1.87499e-17
5892.18767 1.85095e-17
5893.88525 1.83579e-17
5895.58284 1.84041e-17
5897.28043 1.85637e-17
5898.97802 1.88010e-17
5900.67561 1.91815e-17
5902.37320 1.95999e-17
5904.07078 1.96272e-17
5905.76837 1.90843e-17
5907.46596 1.83364e-17
5909.16355 1.77333e-17
5910.86114 1.75345e-17
5912.55872 1.78688e-17
5914.25631 1.84197e-17
5915.95390 1.88640e-17
5917.65149 1.90608e-17
5919.34908 1.89477e-17
5921.04666 1.88586e-17
5922.74425 1.91318e-17
5924.44184 1.95542e-17
5926.13943 1.98282e-17
5927.83702 1.99211e-17
5929.53460 1.98549e-17
5931.23219 1.97016e-17
5932.92978 1.95761e-17
5934.62737 1.93344e-17
5936.33500 1.87328e-17
5938.03259 1.81019e-17
5939.73018 1.80184e-17
5941.42777 1.85150e-17
5943.12535 1.93279e-17
5944.82294 2.00305e-17
5946.52053 2.00538e-17
5948.21812 1.94444e-17
5949.91571 1.88160e-17
5951.61329 1.85015e-17
5953.31088 1.85185e-17
5955.00847 1.88023e-17
5956.70606 1.91787e-17
5958.40365 1.93752e-17
5960.10124 1.89221e-17
5961.79882 1.78290e-17
5963.49641 1.71384e-17
5965.19400 1.74062e-17
5966.89159 1.78703e-17
5968.58918 1.79593e-17
5970.28676 1.78330e-17
5971.98435 1.76572e-17
5973.68194 1.75711e-17
5975.37953 1.76873e-17
5977.07712 1.79032e-17
5978.77470 1.80849e-17
5980.47229 1.81029e-17
5982.16988 1.78553e-17
5983.86747 1.74366e-17
5985.56506 1.69940e-17
5987.26265 1.66155e-17
5988.96023 1.63681e-17
5990.66787 1.63151e-17
5992.36545 1.64953e-17
5994.06304 1.68326e-17
5995.76063 1.72041e-17
5997.45822 1.74673e-17
5999.15581 1.74729e-17
6000.85339 1.72800e-17
6002.55098 1.70848e-17
6004.24857 1.69675e-17
6005.94616 1.69232e-17
6007.64375 1.69013e-17
6009.34134 1.67948e-17
6011.03892 1.66024e-17
6012.73651 1.64488e-17
6014.43410 1.64282e-17
6016.13169 1.65910e-17
6017.82928 1.69247e-17
6019.52686 1.73360e-17
6021.22445 1.76493e-17
6022.92204 1.74637e-17
6024.61963 1.66627e-17
6026.31722 1.59290e-17
6028.01480 1.57544e-17
6029.71239 1.58394e-17
6031.40998 1.58831e-17
6033.10757 1.57906e-17
6034.80516 1.55122e-17
6036.50274 1.52055e-17
6038.20033 1.50486e-17
6039.89792 1.52150e-17
6041.59551 1.58215e-17
6043.29310 1.63973e-17
6044.99069 1.63778e-17
6046.69832 1.59683e-17
6048.38586 1.56069e-17
6050.09349 1.52509e-17
6051.79108 1.47014e-17
6053.48867 1.42048e-17
6055.18626 1.41739e-17
6056.88385 1.45697e-17
6058.58144 1.51053e-17
6060.27902 1.55501e-17
6061.97661 1.57234e-17
6063.67420 1.55402e-17
6065.37179 1.49748e-17
6067.06938 1.43481e-17
6068.76696 1.43743e-17
6070.46455 1.50532e-17
6072.16214 1.54398e-17
6073.85973 1.51223e-17
6075.55732 1.45182e-17
6077.25490 1.39377e-17
6078.95249 1.35217e-17
6080.65008 1.33546e-17
6082.34767 1.33098e-17
6084.04526 1.32835e-17
6085.74284 1.33368e-17
6087.44043 1.34852e-17
6089.13802 1.35197e-17
6090.83561 1.33128e-17
6092.53320 1.32524e-17
6094.23079 1.36658e-17
6095.92837 1.41048e-17
6097.62596 1.40952e-17
6099.32355 1.38699e-17
6101.02114 1.37601e-17
6102.71873 1.38840e-17
6104.42636 1.43053e-17
6106.12395 1.46427e-17
6107.82153 1.43901e-17
6109.51912 1.37645e-17
6111.21671 1.32627e-17
6112.91430 1.30451e-17
6114.61189 1.31205e-17
6116.30948 1.33437e-17
6118.00706 1.34534e-17
6119.70465 1.33946e-17
6121.40224 1.32685e-17
6123.09983 1.31565e-17
6124.79742 1.31447e-17
6126.49500 1.31869e-17
6128.19259 1.30598e-17
6129.89018 1.27618e-17
6131.58777 1.26002e-17
6133.28536 1.27157e-17
6134.98294 1.29890e-17
6136.68053 1.32759e-17
6138.37812 1.33643e-17
6140.07571 1.31509e-17
6141.77330 1.28158e-17
6143.47088 1.25376e-17
6145.16847 1.25042e-17
6146.86606 1.27691e-17
6148.56365 1.27153e-17
6150.26124 1.18877e-17
6151.95883 1.10033e-17
6153.65641 1.07876e-17
6155.35400 1.11849e-17
6157.05159 1.19836e-17
6158.75922 1.25703e-17
6160.45681 1.23033e-17
6162.15440 1.16543e-17
6163.85199 1.13927e-17
6165.54958 1.14794e-17
6167.24716 1.16035e-17
6168.94475 1.18281e-17
6170.64234 1.23312e-17
6172.33993 1.29529e-17
6174.03752 1.33987e-17
6175.73510 1.34275e-17
6177.43269 1.28041e-17
6179.13028 1.18621e-17
6180.82787 1.14126e-17
6182.52546 1.15624e-17
6184.22304 1.17278e-17
6185.92063 1.15990e-17
6187.61822 1.11448e-17
6189.31581 1.05319e-17
6191.01340 1.03044e-17
6192.71098 1.06314e-17
6194.40857 1.09401e-17
6196.10616 1.09193e-17
6197.80375 1.08705e-17
6199.50134 1.10011e-17
6201.19893 1.12666e-17
6202.89651 1.16049e-17
6204.59410 1.19310e-17
6206.29169 1.21326e-17
6207.98928 1.18969e-17
6209.68687 1.10437e-17
6211.38445 1.02716e-17
6213.08204 1.02635e-17
6214.77963 1.06351e-17
6216.48726 1.08512e-17
6218.18485 1.08117e-17
6219.88244 1.05078e-17
6221.58003 1.02687e-17
6223.27762 1.05241e-17
6224.97520 1.09954e-17
6226.67279 1.11404e-17
6228.37038 1.09993e-17
6230.06797 1.08779e-17
6231.76556 1.07762e-17
6233.46314 1.05433e-17
6235.16073 1.02175e-17
6236.85832 9.95039e-18
6238.55591 9.83758e-18
6240.25350 9.92531e-18
6241.95108 1.02145e-17
6243.64867 1.06691e-17
6245.34626 1.11464e-17
6247.04385 1.13630e-17
6248.74144 1.12536e-17
6250.43903 1.10841e-17
6252.13661 1.10948e-17
6253.83420 1.14950e-17
6255.53179 1.22955e-17
6257.22938 1.30457e-17
6258.92697 1.33627e-17
6260.62455 1.30547e-17
6262.32214 1.21416e-17
6264.01973 1.14354e-17
6265.71732 1.15811e-17
6267.41491 1.20146e-17
6269.11249 1.21256e-17
6270.81008 1.19628e-17
6272.51772 1.16603e-17
6274.21530 1.13052e-17
6275.91289 1.09958e-17
6277.61048 1.08560e-17
6279.30807 1.09933e-17
6281.00566 1.12464e-17
6282.70324 1.13705e-17
6284.40083 1.13752e-17
6286.09842 1.13654e-17
6287.79601 1.14328e-17
6289.49360 1.16811e-17
6291.19118 1.19847e-17
6292.88877 1.20509e-17
6294.58636 1.19549e-17
6296.28395 1.20801e-17
6297.98154 1.23339e-17
6299.67912 1.21681e-17
6301.37671 1.15901e-17
6303.07430 1.12293e-17
6304.77189 1.13547e-17
6306.46948 1.17684e-17
6308.16707 1.22434e-17
6309.86465 1.24537e-17
6311.56224 1.22757e-17
6313.25983 1.20733e-17
6314.95742 1.20876e-17
6316.65501 1.21737e-17
6318.35259 1.22242e-17
6320.05018 1.22792e-17
6321.74777 1.23639e-17
6323.44536 1.24610e-17
6325.14295 1.25529e-17
6326.84053 1.26151e-17
6328.54817 1.26277e-17
6330.24576 1.26369e-17
6331.94334 1.26901e-17
6333.64093 1.27020e-17
6335.33852 1.25733e-17
6337.03611 1.23490e-17
6338.73370 1.21158e-17
6340.43128 1.19398e-17
6342.12887 1.18824e-17
6343.82646 1.19531e-17
6345.52405 1.21174e-17
6347.22164 1.24325e-17
6348.91922 1.30122e-17
6350.61681 1.36549e-17
6352.31440 1.39441e-17
6354.01199 1.38610e-17
6355.70958 1.37328e-17
6357.40717 1.36025e-17
6359.10475 1.32137e-17
6360.80234 1.26558e-17
6362.49993 1.24346e-17
6364.19752 1.27092e-17
6365.89511 1.31244e-17
6367.59269 1.34515e-17
6369.29028 1.37196e-17
6370.98787 1.38943e-17
6372.68546 1.37645e-17
6374.38305 1.33260e-17
6376.08063 1.31953e-17
6377.77822 1.37398e-17
6379.47581 1.43244e-17
6381.17340 1.43990e-17
6382.87099 1.41382e-17
6384.57862 1.37690e-17
6386.27621 1.33817e-17
6387.97380 1.30624e-17
6389.67138 1.28913e-17
6391.36897 1.29175e-17
6393.06656 1.29645e-17
6394.76415 1.28096e-17
6396.46174 1.25753e-17
6398.15932 1.24962e-17
6399.85691 1.24265e-17
6401.55450 1.20683e-17
6403.25209 1.17227e-17
6404.94968 1.19686e-17
6406.64726 1.25484e-17
6408.34485 1.27394e-17
6410.04244 1.23932e-17
6411.74003 1.17431e-17
6413.43762 1.11093e-17
6415.13521 1.09151e-17
6416.83279 1.12716e-17
6418.53038 1.19229e-17
6420.22797 1.26445e-17
6421.92556 1.32727e-17
6423.62315 1.36573e-17
6425.32073 1.36870e-17
6427.01832 1.33897e-17
6428.71591 1.30568e-17
6430.41350 1.28699e-17
6432.11109 1.26660e-17
6433.80867 1.23665e-17
6435.50626 1.22174e-17
6437.20385 1.23660e-17
6438.90144 1.25586e-17
6440.60907 1.25666e-17
6442.30666 1.24025e-17
6444.00425 1.21232e-17
6445.70184 1.19726e-17
6447.39942 1.21800e-17
6449.09701 1.24038e-17
6450.79460 1.22344e-17
6452.49219 1.19376e-17
6454.18978 1.19352e-17
6455.88736 1.22240e-17
6457.58495 1.26404e-17
6459.28254 1.32699e-17
6460.98013 1.43000e-17
6462.67772 1.51952e-17
6464.37531 1.50676e-17
6466.07289 1.41055e-17
6467.77048 1.31696e-17
6469.46807 1.26192e-17
6471.16566 1.24556e-17
6472.86325 1.25474e-17
6474.56083 1.25910e-17
6476.25842 1.24619e-17
6477.95601 1.22716e-17
6479.65360 1.21303e-17
6481.35119 1.21515e-17
6483.04877 1.24006e-17
6484.74636 1.28400e-17
6486.44395 1.33814e-17
6488.14154 1.39158e-17
6489.83913 1.42020e-17
6491.53671 1.36373e-17
6493.23430 1.18880e-17
6494.93189 9.32636e-18
6496.63952 6.51806e-18
6498.33711 4.52022e-18
6500.03470 4.17460e-18
6501.73229 5.08663e-18
6503.42988 6.63634e-18
6505.12746 8.08412e-18
6506.82505 8.74794e-18
6508.52264 9.34403e-18
6510.22023 1.08429e-17
6511.91782 1.26023e-17
6513.61541 1.35867e-17
6515.31299 1.38817e-17
6517.01058 1.39429e-17
6518.70817 1.39365e-17
6520.40576 1.39654e-17
6522.10335 1.38483e-17
6523.80093 1.31950e-17
6525.49852 1.23426e-17
6527.19611 1.21379e-17
6528.89370 1.25524e-17
6530.59129 1.28403e-17
6532.28887 1.27421e-17
6533.98646 1.24499e-17
6535.68405 1.21704e-17
6537.38164 1.22241e-17
6539.07923 1.25631e-17
6540.77681 1.24538e-17
6542.47440 1.17589e-17
6544.17199 1.15465e-17
6545.86958 1.23137e-17
6547.56717 1.32026e-17
6549.26476 1.35924e-17
6550.96234 1.36060e-17
6552.66998 1.34095e-17
6554.36756 1.32620e-17
6556.06515 1.33855e-17
6557.76274 1.37615e-17
6559.46033 1.42880e-17
6561.15792 1.44343e-17
6562.85550 1.37387e-17
6564.55309 1.28762e-17
6566.25068 1.26571e-17
6567.94827 1.29102e-17
6569.64586 1.32431e-17
6571.34345 1.33863e-17
6573.04103 1.30951e-17
6574.73862 1.26500e-17
6576.43621 1.25395e-17
6578.13380 1.27477e-17
6579.83139 1.30298e-17
6581.52897 1.31593e-17
6583.22656 1.29084e-17
6584.92415 1.23750e-17
6586.62174 1.18898e-17
6588.31933 1.17221e-17
6590.01691 1.21028e-17
6591.71450 1.28854e-17
6593.41209 1.34780e-17
6595.10968 1.36439e-17
6596.80727 1.36676e-17
6598.50485 1.36621e-17
6600.20244 1.34251e-17
6601.90003 1.29959e-17
6603.59762 1.28982e-17
6605.29521 1.33633e-17
6606.99280 1.38922e-17
6608.70043 1.40882e-17
6610.39802 1.39473e-17
6612.09560 1.35284e-17
6613.79319 1.30705e-17
6615.49078 1.27988e-17
6617.18837 1.26463e-17
6618.88596 1.25276e-17
6620.58355 1.25579e-17
6622.28113 1.28296e-17
6623.97872 1.32666e-17
6625.67631 1.37710e-17
6627.37390 1.38194e-17
6629.07149 1.28326e-17
6630.76907 1.17081e-17
6632.46666 1.17950e-17
6634.16425 1.27982e-17
6635.86184 1.37465e-17
6637.55943 1.42334e-17
6639.25701 1.41044e-17
6640.95460 1.35443e-17
6642.65219 1.30266e-17
6644.34978 1.26623e-17
6646.04737 1.22367e-17
6647.74495 1.18825e-17
6649.44254 1.20562e-17
6651.14013 1.27645e-17
6652.83772 1.35007e-17
6654.53531 1.39571e-17
6656.23290 1.41188e-17
6657.93048 1.39897e-17
6659.62807 1.36014e-17
6661.32566 1.30946e-17
6663.03329 1.28193e-17
6664.73088 1.29602e-17
6666.42847 1.32349e-17
6668.12606 1.34062e-17
6669.82364 1.34845e-17
6671.52123 1.35062e-17
6673.21882 1.36294e-17
6674.91641 1.39714e-17
6676.61400 1.42991e-17
6678.31159 1.43671e-17
6680.00917 1.42499e-17
6681.70676 1.40775e-17
6683.40435 1.36962e-17
6685.10194 1.29325e-17
6686.79953 1.22386e-17
6688.49711 1.22068e-17
6690.19470 1.26765e-17
6691.89229 1.32079e-17
6693.58988 1.36492e-17
6695.28747 1.39572e-17
6696.98505 1.41520e-17
6698.68264 1.43245e-17
6700.38023 1.44024e-17
6702.07782 1.41969e-17
6703.77541 1.37552e-17
6705.47300 1.33212e-17
6707.17058 1.30130e-17
6708.86817 1.28144e-17
6710.56576 1.27403e-17
6712.26335 1.28351e-17
6713.96094 1.30773e-17
6715.65852 1.33770e-17
6717.35611 1.36112e-17
6719.05370 1.35763e-17
6720.75129 1.32209e-17
6722.45892 1.28621e-17
6724.15651 1.27242e-17
6725.85410 1.26621e-17
6727.55169 1.25846e-17
6729.24927 1.27495e-17
6730.94686 1.32976e-17
6732.64445 1.37201e-17
6734.34204 1.35633e-17
6736.03963 1.31066e-17
6737.73721 1.27151e-17
6739.43480 1.24724e-17
6741.13239 1.24132e-17
6742.82998 1.24999e-17
6744.52757 1.26524e-17
6746.22515 1.28911e-17
6747.92274 1.32696e-17
6749.62033 1.36064e-17
6751.31792 1.36258e-17
6753.01551 1.35096e-17
6754.71309 1.36659e-17
6756.41068 1.40048e-17
6758.10827 1.41504e-17
6759.80586 1.39740e-17
6761.50345 1.35169e-17
6763.20104 1.29133e-17
6764.89862 1.23833e-17
6766.59621 1.21065e-17
6768.29380 1.22172e-17
6769.99139 1.26176e-17
6771.68898 1.28832e-17
6773.38656 1.27890e-17
6775.08415 1.24690e-17
6776.79179 1.20389e-17
6778.48937 1.15590e-17
6780.18696 1.11190e-17
6781.88455 1.08086e-17
6783.58214 1.07242e-17
6785.27973 1.10729e-17
6786.97731 1.19150e-17
6788.67490 1.27493e-17
6790.37249 1.31241e-17
6792.07008 1.31471e-17
6793.76767 1.29945e-17
6795.46525 1.26766e-17
6797.16284 1.22194e-17
6798.86043 1.18044e-17
6800.55802 1.16140e-17
6802.25561 1.16877e-17
6803.95319 1.20084e-17
6805.65078 1.23303e-17
6807.34837 1.23310e-17
6809.04596 1.20827e-17
6810.74355 1.18348e-17
6812.44114 1.16197e-17
6814.13872 1.13767e-17
6815.83631 1.10732e-17
6817.53390 1.06637e-17
6819.23149 1.03149e-17
6820.92908 1.03749e-17
6822.62666 1.08154e-17
6824.32425 1.12393e-17
6826.02184 1.14443e-17
6827.71943 1.14452e-17
6829.41702 1.13460e-17
6831.11460 1.14218e-17
6832.81219 1.17568e-17
6834.51983 1.20490e-17
6836.21741 1.21158e-17
6837.91500 1.20829e-17
6839.61259 1.20040e-17
6841.31018 1.16575e-17
6843.00777 1.09876e-17
6844.70535 1.05752e-17
6846.40294 1.05786e-17
6848.10053 1.05819e-17
6849.79812 1.05852e-17
6851.49571 1.05886e-17
6853.19329 1.05919e-17
6854.89088 1.05952e-17
6856.58847 1.05985e-17
6858.28606 1.06019e-17
6859.98365 1.06052e-17
6861.68123 1.06085e-17
6863.37882 1.06118e-17
6865.07641 1.06152e-17
6866.77400 1.06185e-17
6868.47159 1.06218e-17
6870.16918 1.06251e-17
6871.86676 1.06285e-17
6873.56435 1.06318e-17
6875.26194 1.06351e-17
6876.95953 1.06384e-17
6878.65712 1.06418e-17
6880.35470 1.06451e-17
6882.05229 1.06484e-17
6883.74988 1.06517e-17
6885.44747 1.06550e-17
6887.14506 1.06584e-17
6888.84264 1.06617e-17
6890.55028 1.06650e-17
6892.24787 1.06683e-17
6893.94545 1.06717e-17
6895.64304 1.06750e-17
6897.34063 1.06783e-17
6899.03822 1.06816e-17
6900.73581 1.06849e-17
6902.43339 1.06883e-17
6904.13098 1.06916e-17
6905.82857 1.06949e-17
6907.52616 1.06982e-17
6909.22375 1.07015e-17
6910.92133 1.07048e-17
6912.61892 1.07082e-17
6914.31651 1.07115e-17
6916.01410 1.07148e-17
6917.71169 1.07181e-17
6919.40928 1.07214e-17
6921.10686 1.07247e-17
6922.80445 1.07281e-17
6924.50204 1.07314e-17
6926.19963 1.07347e-17
6927.89722 1.07380e-17
6929.59480 1.07413e-17
6931.29239 1.07446e-17
6932.98998 1.07479e-17
6934.68757 1.07513e-17
6936.38516 1.07546e-17
6938.08274 1.04215e-17
6939.78033 9.96949e-18
6941.47792 9.54284e-18
6943.17551 9.64629e-18
6944.87310 1.02847e-17
6946.58073 1.07521e-17
6948.27832 1.07444e-17
6949.97591 1.06602e-17
6951.67349 1.07426e-17
6953.37108 1.09274e-17
6955.06867 1.11510e-17
6956.76626 1.12940e-17
6958.46385 1.12913e-17
6960.16143 1.13149e-17
6961.85902 1.14968e-17
6963.55661 1.17121e-17
6965.25420 1.18472e-17
6966.95179 1.20224e-17
6968.64938 1.23378e-17
6970.34696 1.25906e-17
6972.04455 1.25661e-17
6973.74214 1.22369e-17
6975.43973 1.16361e-17
6977.13732 1.10792e-17
6978.83490 1.09486e-17
6980.53249 1.10908e-17
6982.23008 1.11456e-17
6983.92767 1.11935e-17
6985.62526 1.15053e-17
6987.32284 1.18657e-17
6989.02043 1.18132e-17
6990.71802 1.14010e-17
6992.41561 1.10065e-17
6994.11320 1.08202e-17
6995.81078 1.09098e-17
6997.50837 1.11446e-17
6999.20596 1.11542e-17
7000.91359 1.08968e-17
7002.61118 1.07692e-17
7004.30877 1.09056e-17
7006.00636 1.10381e-17
7007.70395 1.10539e-17
7009.40153 1.11060e-17
7011.09912 1.12899e-17
7012.79671 1.16156e-17
7014.49430 1.20339e-17
7016.19189 1.22916e-17
7017.88947 1.22320e-17
7019.58706 1.21632e-17
7021.28465 1.23018e-17
7022.98224 1.21304e-17
7024.67983 1.12483e-17
7026.37742 1.04017e-17
7028.07500 1.03466e-17
7029.77259 1.07488e-17
7031.47018 1.11045e-17
7033.16777 1.11496e-17
7034.86536 1.06853e-17
7036.56294 1.01344e-17
7038.26053 1.01113e-17
7039.95812 1.04117e-17
7041.65571 1.05217e-17
7043.35330 1.04528e-17
7045.05088 1.04464e-17
7046.74847 1.05214e-17
7048.44606 1.05843e-17
7050.14365 1.06267e-17
7051.84124 1.06978e-17
7053.53882 1.07545e-17
7055.23641 1.06640e-17
7056.94405 1.04815e-17
7058.64163 1.04883e-17
7060.33922 1.06950e-17
7062.03681 1.07186e-17
7063.73440 1.05016e-17
7065.43199 1.05482e-17
7067.12957 1.10235e-17
7068.82716 1.14261e-17
7070.52475 1.14226e-17
7072.22234 1.10331e-17
7073.91993 1.04185e-17
7075.61752 1.02328e-17
7077.31510 1.08851e-17
7079.01269 1.16785e-17
7080.71028 1.19691e-17
7082.40787 1.18187e-17
7084.10546 1.13961e-17
7085.80304 1.12387e-17
7087.50063 1.18424e-17
7089.19822 1.24937e-17
7090.89581 1.23152e-17
7092.59340 1.16272e-17
7094.29098 1.10421e-17
7095.98857 1.06868e-17
7097.68616 1.05352e-17
7099.38375 1.05926e-17
7101.08134 1.08708e-17
7102.77892 1.10437e-17
7104.47651 1.06100e-17
7106.17410 9.86630e-18
7107.87169 9.60416e-18
7109.56928 1.00179e-17
7111.26687 1.08500e-17
7112.97450 1.17940e-17
7114.67209 1.24866e-17
7116.36967 1.26835e-17
7118.06726 1.22962e-17
7119.76485 1.14945e-17
7121.46244 1.08151e-17
7123.16003 1.05561e-17
7124.85761 1.05717e-17
7126.55520 1.06989e-17
7128.25279 1.07125e-17
7129.95038 1.05329e-17
7131.64797 1.06062e-17
7133.34556 1.11632e-17
7135.04314 1.15726e-17
7136.74073 1.13651e-17
7138.43832 1.09602e-17
7140.13591 1.07828e-17
7141.83350 1.08874e-17
7143.53108 1.12535e-17
7145.22867 1.16105e-17
7146.92626 1.16685e-17
7148.62385 1.14028e-17
7150.32144 1.08679e-17
7152.01902 1.04214e-17
7153.71661 1.04905e-17
7155.41420 1.08282e-17
7157.11179 1.09562e-17
7158.80938 1.07995e-17
7160.50697 1.04367e-17
7162.20455 1.01516e-17
7163.90214 1.03695e-17
7165.59973 1.09159e-17
7167.29732 1.12076e-17
7169.00495 1.10766e-17
7170.70254 1.06668e-17
7172.40013 1.02528e-17
7174.09771 1.02987e-17
7175.79530 1.07914e-17
7177.49289 1.10529e-17
7179.19048 1.08605e-17
7180.88807 1.07436e-17
7182.58566 1.08851e-17
7184.28324 1.07770e-17
7185.98083 1.02541e-17
7187.67842 9.95475e-18
7189.37601 1.02564e-17
7191.07360 1.07856e-17
7192.77118 1.11788e-17
7194.46877 1.11721e-17
7196.16636 1.06340e-17
7197.86395 1.00150e-17
7199.56154 9.77369e-18
7201.25912 1.00347e-17
7202.95671 1.08047e-17
7204.65430 1.15616e-17
7206.35189 1.17318e-17
7208.04948 1.15200e-17
7209.74706 1.13241e-17
7211.44465 1.12357e-17
7213.14224 1.12540e-17
7214.83983 1.14239e-17
7216.53742 1.17946e-17
7218.23501 1.20957e-17
7219.93259 1.19058e-17
7221.63018 1.13324e-17
7223.32777 1.08228e-17
7225.02536 1.04730e-17
7226.73299 1.00813e-17
7228.43058 9.86743e-18
7230.12817 1.04628e-17
7231.82576 1.16049e-17
7233.52334 1.20201e-17
7235.22093 1.13747e-17
7236.91852 1.06083e-17
7238.61611 1.02726e-17
7240.31370 1.03168e-17
7242.01128 1.06263e-17
7243.70887 1.08679e-17
7245.40646 1.08297e-17
7247.10405 1.07001e-17
7248.80164 1.06416e-17
7250.49922 1.07107e-17
7252.19681 1.09097e-17
7253.89440 1.09934e-17
7255.59199 1.07583e-17
7257.28958 1.03559e-17
7258.98716 9.96713e-18
7260.68475 9.53389e-18
7262.38234 8.99269e-18
7264.07993 8.68548e-18
7265.77752 8.98429e-18
7267.47511 9.44375e-18
7269.17269 9.41760e-18
7270.87028 9.29869e-18
7272.56787 9.81257e-18
7274.26546 1.05755e-17
7275.96305 1.07518e-17
7277.66063 1.04769e-17
7279.35822 1.03879e-17
7281.06585 1.04554e-17
7282.76344 1.02541e-17
7284.46103 9.78435e-18
7286.15862 9.33817e-18
7287.85621 9.12389e-18
7289.55380 9.30024e-18
7291.25138 9.79352e-18
7292.94897 1.02304e-17
7294.64656 1.04177e-17
7296.34415 1.04539e-17
7298.04174 1.03846e-17
7299.73932 1.01316e-17
7301.43691 9.76433e-18
7303.13450 9.70993e-18
7304.83209 1.01141e-17
7306.52968 1.02581e-17
7308.22726 9.70990e-18
7309.92485 9.18311e-18
7311.62244 9.26052e-18
7313.32003 9.71506e-18
7315.01762 1.02451e-17
7316.71520 1.03812e-17
7318.41279 9.74700e-18
7320.11038 9.07910e-18
7321.80797 9.21539e-18
7323.50556 9.69023e-18
7325.20315 9.78412e-18
7326.90073 9.64171e-18
7328.59832 9.63295e-18
7330.29591 9.66215e-18
7331.99350 9.48312e-18
7333.69109 9.28291e-18
7335.38867 9.42633e-18
7337.08626 9.78216e-18
7338.78385 9.97318e-18
7340.49148 9.80541e-18
7342.18907 9.16333e-18
7343.88666 8.41151e-18
7345.58425 8.37063e-18
7347.28184 9.02818e-18
7348.97942 9.47088e-18
7350.67701 9.36512e-18
7352.37460 9.10673e-18
7354.07219 8.95621e-18
7355.76978 9.01599e-18
7357.46736 9.31921e-18
7359.16495 9.70545e-18
7360.86254 1.00416e-17
7362.56013 1.03459e-17
7364.25772 1.05634e-17
7365.95530 1.03323e-17
7367.65289 9.50959e-18
7369.35048 8.80332e-18
7371.04807 8.79972e-18
7372.74566 9.17279e-18
7374.44325 9.53433e-18
7376.14083 9.85161e-18
7377.83842 1.01175e-17
7379.53601 1.02299e-17
7381.23360 1.01090e-17
7382.93119 9.87919e-18
7384.62877 9.70915e-18
7386.32636 9.66287e-18
7388.02395 9.77509e-18
7389.72154 9.88691e-18
7391.41913 9.73838e-18
7393.11671 9.55267e-18
7394.82435 9.80753e-18
7396.52194 1.02550e-17
7398.21952 1.02195e-17
7399.91711 9.66668e-18
7401.61470 9.00319e-18
7403.31229 8.57546e-18
7405.00988 8.72381e-18
7406.70746 9.33303e-18
7408.40505 9.71993e-18
7410.10264 9.65225e-18
7411.80023 9.55351e-18
7413.49782 9.62312e-18
7415.19540 9.69476e-18
7416.89299 9.68699e-18
7418.59058 9.67036e-18
7420.28817 9.65109e-18
7421.98576 9.44928e-18
7423.68335 9.01036e-18
7425.38093 8.71737e-18
7427.07852 8.84766e-18
7428.77611 9.12875e-18
7430.47370 9.29467e-18
7432.17129 9.47928e-18
7433.86887 9.80556e-18
7435.56646 9.93703e-18
7437.26405 9.55192e-18
7438.96164 8.99274e-18
7440.65923 8.70687e-18
7442.35681 8.82360e-18
7444.05440 9.37522e-18
7445.75199 9.94998e-18
7447.44958 9.97758e-18
7449.14717 9.66417e-18
7450.85480 9.55566e-18
7452.55239 9.67844e-18
7454.24998 9.80277e-18
7455.94756 9.83536e-18
7457.64515 9.74635e-18
7459.34274 9.59029e-18
7461.04033 9.49461e-18
7462.73792 9.53363e-18
7464.43550 9.73596e-18
7466.13309 9.98537e-18
7467.83068 1.00032e-17
7469.52827 9.62876e-18
7471.22586 8.82042e-18
7472.92344 7.83246e-18
7474.62103 7.52303e-18
7476.31862 8.20951e-18
7478.01621 8.93097e-18
7479.71380 9.02267e-18
7481.41139 8.78237e-18
7483.10897 8.47984e-18
7484.80656 8.15839e-18
7486.50415 7.88240e-18
7488.20174 7.72748e-18
7489.89933 7.74156e-18
7491.59691 7.86397e-18
7493.29450 8.02315e-18
7494.99209 8.29640e-18
7496.68968 8.75413e-18
7498.38727 9.31115e-18
7500.08485 9.85456e-18
7501.78244 1.00732e-17
7503.48003 9.62434e-18
7505.17762 8.89302e-18
7506.88525 8.54292e-18
7508.58284 8.52275e-18
7510.28043 8.44556e-18
7511.97802 8.32413e-18
7513.67560 8.36728e-18
7515.37319 8.59157e-18
7517.07078 8.90885e-18
7518.76837 9.16010e-18
7520.46596 9.12366e-18
7522.16354 8.77243e-18
7523.86113 8.26028e-18
7525.55872 7.85970e-18
7527.25631 8.04575e-18
7528.95390 8.79519e-18
7530.65149 9.23842e-18
7532.34907 8.96116e-18
7534.04666 8.46438e-18
7535.74425 8.14458e-18
7537.44184 8.16905e-18
7539.13943 8.56597e-18
7540.83701 8.84358e-18
7542.53460 8.65750e-18
7544.23219 8.44655e-18
7545.92978 8.58496e-18
7547.62737 8.86521e-18
7549.32495 9.04722e-18
7551.02254 9.03732e-18
7552.72013 9.02743e-18
7554.41772 9.01753e-18
7556.11531 9.00764e-18
7557.81289 8.99775e-18
7559.51048 8.98786e-18
7561.20807 8.97797e-18
7562.91570 8.96808e-18
7564.61329 8.95819e-18
7566.31088 8.94830e-18
7568.00847 8.93841e-18
7569.70606 8.92852e-18
7571.40364 8.91864e-18
7573.10123 8.90875e-18
7574.79882 8.89887e-18
7576.49641 8.88898e-18
7578.19400 8.87910e-18
7579.89158 8.86921e-18
7581.58917 8.85933e-18
7583.28676 8.84945e-18
7584.98435 8.83957e-18
7586.68194 8.82969e-18
7588.37953 8.81981e-18
7590.07711 8.80993e-18
7591.77470 8.80005e-18
7593.47229 8.79017e-18
7595.16988 8.78029e-18
7596.86747 8.77042e-18
7598.56505 8.76054e-18
7600.26264 8.75067e-18
7601.96023 8.74079e-18
7603.65782 8.73092e-18
7605.35541 8.72104e-18
7607.05299 8.71117e-18
7608.75058 8.70130e-18
7610.44817 8.69142e-18
7612.14576 8.68156e-18
7613.84335 8.67169e-18
7615.54094 8.66182e-18
7617.23852 8.65195e-18
7618.94616 8.64208e-18
7620.64374 8.63221e-18
7622.34133 8.62234e-18
7624.03892 8.61248e-18
7625.73651 8.60261e-18
7627.43410 8.59275e-18
7629.13168 8.58288e-18
7630.82927 8.57302e-18
7632.52686 8.56316e-18
7634.22445 8.55329e-18
7635.92204 8.54343e-18
7637.61963 8.53357e-18
7639.31721 8.52371e-18
7641.01480 8.51385e-18
7642.71239 8.50399e-18
7644.40998 8.49413e-18
7646.10757 8.48427e-18
7647.80515 8.47442e-18
7649.50274 8.46456e-18
7651.20033 8.45471e-18
7652.89792 8.44485e-18
7654.59551 8.43500e-18
7656.29309 8.42514e-18
7657.99068 8.41529e-18
7659.68827 8.40544e-18
7661.38586 8.39559e-18
7663.08345 8.38574e-18
7664.78103 8.37588e-18
7666.47862 8.36603e-18
7668.17621 8.35619e-18
7669.87380 8.34634e-18
7671.57139 8.33649e-18
7673.26898 8.32664e-18
7674.97661 8.31680e-18
7676.67420 8.30695e-18
7678.37178 8.29711e-18
7680.06937 8.28726e-18
7681.76696 8.07048e-18
7683.46455 7.91470e-18
7685.16214 7.93628e-18
7686.85973 8.12841e-18
7688.55731 8.42062e-18
7690.25490 8.65914e-18
7691.95249 8.62605e-18
7693.65008 8.36295e-18
7695.34767 8.13676e-18
7697.04525 8.10787e-18
7698.74284 8.33846e-18
7700.44043 8.72008e-18
7702.13802 8.88202e-18
7703.83561 8.71095e-18
7705.53319 8.54725e-18
7707.23078 8.56619e-18
7708.92837 8.59367e-18
7710.62596 8.53560e-18
7712.32355 8.48784e-18
7714.02113 8.50749e-18
7715.71872 8.55174e-18
7717.41631 8.57524e-18
7719.11390 8.51379e-18
7720.81149 8.32850e-18
7722.50908 8.14152e-18
7724.20666 8.06600e-18
7725.90425 7.97495e-18
7727.60184 7.73595e-18
7729.29943 7.44739e-18
7731.00706 7.24163e-18
7732.70465 7.25500e-18
7734.40224 7.60702e-18
7736.09982 8.06553e-18
7737.79741 8.27805e-18
7739.49500 8.27455e-18
7741.19259 8.26759e-18
7742.89018 8.16143e-18
7744.58777 7.69812e-18
7746.28535 7.17243e-18
7747.98294 7.21338e-18
7749.68053 7.82226e-18
7751.37812 8.52564e-18
7753.07571 8.99790e-18
7754.77329 9.03277e-18
7756.47088 8.61277e-18
7758.16847 8.00289e-18
7759.86606 7.29742e-18
7761.56365 6.28003e-18
7763.26123 5.04721e-18
7764.95882 4.21443e-18
7766.65641 4.16543e-18
7768.35400 4.84521e-18
7770.05159 6.03403e-18
7771.74917 7.12144e-18
7773.44676 7.65773e-18
7775.14435 7.86794e-18
7776.84194 7.99622e-18
7778.53953 8.12983e-18
7780.23712 8.32808e-18
7781.93470 8.25473e-18
7783.63229 7.63282e-18
7785.33992 7.24741e-18
7787.03751 7.91299e-18
7788.73510 9.01249e-18
7790.43269 9.66825e-18
7792.13028 9.66653e-18
7793.82787 8.98145e-18
7795.52545 8.24517e-18
7797.22304 8.34739e-18
7798.92063 8.95296e-18
7800.61822 9.15929e-18
7802.31581 8.93406e-18
7804.01339 8.72414e-18
7805.71098 8.54375e-18
7807.40857 8.12462e-18
7809.10616 7.65154e-18
7810.80375 7.67678e-18
7812.50133 8.18831e-18
7814.19892 8.60173e-18
7815.89651 8.66567e-18
7817.59410 8.52315e-18
7819.29169 8.34041e-18
7820.98927 8.37818e-18
7822.68686 8.69140e-18
7824.38445 8.88077e-18
7826.08204 8.73944e-18
7827.77963 8.53719e-18
7829.47722 8.48096e-18
7831.17480 8.59546e-18
7832.87239 8.85015e-18
7834.56998 9.01819e-18
7836.26757 8.90748e-18
7837.96516 8.54036e-18
7839.66274 8.00094e-18
7841.36033 7.56718e-18
7843.05792 7.49935e-18
7844.76555 7.69780e-18
7846.46314 7.98530e-18
7848.16073 8.17851e-18
7849.85832 8.10468e-18
7851.55591 7.91031e-18
7853.25349 7.84059e-18
7854.95108 7.93190e-18
7856.64867 8.14608e-18
7858.34626 8.33748e-18
7860.04385 8.29144e-18
7861.74143 8.09001e-18
7863.43902 8.01445e-18
7865.13661 8.02293e-18
7866.83420 7.82550e-18
7868.53179 7.48956e-18
7870.22937 7.39661e-18
7871.92696 7.62036e-18
7873.62455 7.90523e-18
7875.32214 8.08428e-18
7877.01973 8.11037e-18
7878.71732 7.94212e-18
7880.41490 7.53279e-18
7882.11249 7.00016e-18
7883.81008 6.80011e-18
7885.50767 7.16203e-18
7887.20526 7.73287e-18
7888.90284 8.19738e-18
7890.60043 8.46736e-18
7892.29802 8.48960e-18
7893.99561 8.28583e-18
7895.69320 7.93656e-18
7897.39078 7.70222e-18
7899.09842 7.80358e-18
7900.79601 8.09912e-18
7902.49359 8.38872e-18
7904.19118 8.47640e-18
7905.88877 8.20134e-18
7907.58636 7.82285e-18
7909.28395 7.68052e-18
7910.98153 7.95384e-18
7912.67912 8.78298e-18
7914.37671 9.43274e-18
7916.07430 8.78479e-18
7917.77189 7.39233e-18
7919.46947 6.70864e-18
7921.16706 6.81655e-18
7922.86465 6.91581e-18
7924.56224 6.88444e-18
7926.25983 7.10593e-18
7927.95741 7.48043e-18
7929.65500 7.46820e-18
7931.35259 7.04851e-18
7933.05018 6.80756e-18
7934.74777 6.98538e-18
7936.44536 7.32909e-18
7938.14294 7.65837e-18
7939.84053 7.89503e-18
7941.53812 7.99499e-18
7943.23571 8.03157e-18
7944.93330 8.06588e-18
7946.63088 8.09875e-18
7948.32847 8.11721e-18
7950.02606 8.03290e-18
7951.72365 7.79839e-18
7953.43128 7.54506e-18
7955.11882 7.40580e-18
7956.82646 7.52872e-18
7958.52405 7.99857e-18
7960.22163 8.35090e-18
7961.91922 8.09701e-18
7963.61681 7.56726e-18
7965.31440 7.25871e-18
7967.01199 7.19984e-18
7968.70957 7.29185e-18
7970.40716 7.43427e-18
7972.10475 7.50005e-18
7973.80234 7.53617e-18
7975.49993 7.68272e-18
7977.19751 7.83731e-18
7978.89510 7.76682e-18
7980.59269 7.49600e-18
7982.29028 7.21469e-18
7983.98787 7.04977e-18
7985.68546 7.09044e-18
7987.38304 7.25468e-18
7989.08063 7.27381e-18
7990.77822 7.03556e-18
7992.47581 6.61813e-18
7994.17340 6.18561e-18
7995.87098 6.05471e-18
7997.56857 6.34688e-18
7999.26616 6.81312e-18
8000.96375 7.19345e-18
8002.66134 7.18897e-18
8004.35892 6.69674e-18
8006.05651 6.23313e-18
8007.75410 6.19935e-18
8009.45169 6.40780e-18
8011.14928 6.63701e-18
8012.85691 6.71663e-18
8014.55450 6.51620e-18
8016.25209 6.17667e-18
8017.94967 5.88131e-18
8019.64726 5.73431e-18
8021.34485 5.80796e-18
8023.04244 5.98414e-18
8024.74003 6.09519e-18
8026.43761 6.12235e-18
8028.13520 6.09340e-18
8029.83279 6.06720e-18
8031.53038 6.12324e-18
8033.22797 6.21346e-18
8034.92555 6.22478e-18
8036.62314 6.16752e-18
8038.32073 6.12233e-18
8040.01832 6.13319e-18
8041.71591 6.22399e-18
8043.41350 6.35919e-18
8045.11108 6.44024e-18
8046.80867 6.44575e-18
8048.50626 6.44671e-18
8050.20385 6.46052e-18
8051.90144 6.44242e-18
8053.59902 6.34362e-18
8055.29661 6.07299e-18
8056.99420 5.67119e-18
8058.69179 5.49001e-18
8060.38938 5.68454e-18
8062.08696 5.87388e-18
8063.78455 5.77975e-18
8065.48214 5.49063e-18
8067.17973 5.14124e-18
8068.88736 5.02946e-18
8070.58495 5.37086e-18
8072.28254 5.81582e-18
8073.98013 5.99762e-18
8075.67771 5.99207e-18
8077.37530 5.94110e-18
8079.07289 5.89864e-18
8080.77048 5.90415e-18
8082.46807 5.99586e-18
8084.16565 6.19991e-18
8085.86324 6.33714e-18
8087.56083 6.16947e-18
8089.25842 5.77537e-18
8090.95601 5.36731e-18
8092.65360 5.08020e-18
8094.35118 5.01618e-18
8096.04877 5.09070e-18
8097.74636 5.08326e-18
8099.44395 4.95281e-18
8101.14154 4.80015e-18
8102.83912 4.68940e-18
8104.53671 4.66800e-18
8106.23430 4.68369e-18
8107.93189 4.55000e-18
8109.62948 4.22094e-18
8111.32706 3.83836e-18
8113.02465 3.58771e-18
8114.72224 3.77064e-18
8116.41983 4.44316e-18
8118.11742 5.10294e-18
8119.81500 5.37133e-18
8121.51259 5.25743e-18
8123.21018 4.85413e-18
8124.91781 4.48133e-18
8126.61540 4.40939e-18
8128.31299 4.52852e-18
8130.01058 4.69390e-18
8131.70817 4.83791e-18
8133.40575 4.90027e-18
8135.10334 4.97827e-18
8136.80093 5.18356e-18
8138.49852 5.27553e-18
8140.19611 4.97376e-18
8141.89370 4.46579e-18
8143.59128 4.06309e-18
8145.28887 3.98128e-18
8146.98646 4.39077e-18
8148.68405 5.03957e-18
8150.38164 5.46921e-18
8152.07922 5.55069e-18
8153.77681 5.34870e-18
8155.47440 4.98847e-18
8157.17199 4.66428e-18
8158.86958 4.43363e-18
8160.56716 4.20802e-18
8162.26475 4.02715e-18
8163.96234 4.06363e-18
8165.65993 4.32629e-18
8167.35752 4.64658e-18
8169.05510 4.81790e-18
8170.75269 4.53690e-18
8172.45028 3.79007e-18
8174.14787 3.13676e-18
8175.84546 2.97668e-18
8177.54305 3.29623e-18
8179.24063 3.97919e-18
8180.94827 4.69681e-18
8182.64585 5.12316e-18
8184.34344 5.00244e-18
8186.04103 4.23753e-18
8187.73862 3.37230e-18
8189.43621 2.95455e-18
8191.13379 2.93339e-18
8192.83138 3.15100e-18
8194.52897 3.57376e-18
8196.22656 4.15251e-18
8197.92415 4.61110e-18
8199.62174 4.65099e-18
8201.31932 4.41318e-18
8203.01691 4.18613e-18
8204.71450 4.04910e-18
8206.41209 4.00595e-18
8208.10968 3.98378e-18
8209.80726 3.85727e-18
8211.50485 3.65881e-18
8213.20244 3.51373e-18
8214.90003 3.48970e-18
8216.59762 3.62497e-18
8218.29520 3.81344e-18
8219.99279 3.80320e-18
8221.69038 3.55368e-18
8223.38797 3.27247e-18
8225.08556 3.09346e-18
8226.78314 3.04812e-18
8228.48073 3.14101e-18
8230.17832 3.32566e-18
8231.87591 3.52641e-18
8233.57350 3.60721e-18
8235.27109 3.52173e-18
8236.97872 3.48792e-18
8238.67631 3.64148e-18
8240.37389 3.79871e-18
8242.07148 3.80191e-18
8243.76907 3.63951e-18
8245.46666 3.34450e-18
8247.16425 3.13922e-18
8248.86184 3.22566e-18
8250.55942 3.52345e-18
8252.25701 3.89148e-18
8253.95460 4.12577e-18
8255.65219 4.03757e-18
8257.34978 3.69819e-18
8259.04736 3.25342e-18
8260.74495 3.01295e-18
8262.44254 3.33611e-18
8264.14013 3.89042e-18
8265.83772 4.03631e-18
8267.53530 3.74438e-18
8269.23289 3.31057e-18
8270.93048 2.93182e-18
8272.62807 2.76558e-18
8274.32566 2.79725e-18
8276.02324 2.84769e-18
8277.72083 2.84078e-18
8279.41842 2.80685e-18
8281.11601 2.77963e-18
8282.81360 2.81110e-18
8284.51119 2.92084e-18
8286.20877 3.06915e-18
8287.90636 3.22823e-18
8289.60395 3.38863e-18
8291.31158 3.55089e-18
8293.00917 3.77296e-18
8294.69671 4.04016e-18
8296.40435 4.08049e-18
8298.10193 3.75195e-18
8299.79952 3.40884e-18
8301.49711 3.36486e-18
8303.19470 3.58672e-18
8304.89229 3.98800e-18
8306.58988 4.43389e-18
8308.28746 4.77875e-18
8309.98505 4.95926e-18
8311.68264 4.94837e-18
8313.38023 4.79183e-18
8315.07782 4.55985e-18
8316.77540 4.34935e-18
8318.47299 4.26062e-18
8320.17058 4.18745e-18
8321.86817 3.94949e-18
8323.56576 3.56557e-18
8325.26334 3.14129e-18
8326.96093 2.81957e-18
8328.65852 2.77178e-18
8330.35611 2.94218e-18
8332.05370 3.10569e-18
8333.75129 3.16200e-18
8335.44887 3.11695e-18
8337.14646 3.02337e-18
8338.84405 2.99929e-18
8340.54164 3.08176e-18
8342.23923 3.18626e-18
8343.93681 3.25640e-18
8345.63440 3.29379e-18
8347.33199 3.26687e-18
8349.03962 3.05651e-18
8350.73721 2.66686e-18
8352.43480 2.41758e-18
8354.13239 2.51159e-18
8355.82998 2.74921e-18
8357.52756 2.95087e-18
8359.22515 3.13491e-18
8360.92274 3.31990e-18
8362.62033 3.45942e-18
8364.31792 3.52442e-18
8366.01550 3.64272e-18
8367.71309 3.93073e-18
8369.41068 4.23453e-18
8371.10827 4.36405e-18
8372.80586 4.19805e-18
8374.50344 3.66065e-18
8376.20103 3.03349e-18
8377.89862 2.70400e-18
8379.59621 2.79133e-18
8381.29380 3.28835e-18
8382.99138 3.94159e-18
8384.68897 4.36416e-18
8386.38656 4.42583e-18
8388.08415 4.16695e-18
8389.78174 3.73966e-18
8391.47933 3.40803e-18
8393.17691 3.23160e-18
8394.87450 3.03822e-18
8396.57209 2.86823e-18
8398.26968 3.01775e-18
8399.96727 3.51971e-18
8401.67490 4.06281e-18
8403.36244 4.39161e-18
8405.07008 4.31101e-18
8406.76766 3.84009e-18
8408.46525 3.49141e-18
8410.16284 3.59164e-18
8411.86043 3.90029e-18
8413.55802 4.19309e-18
8415.25560 4.36842e-18
8416.95319 4.37155e-18
8418.65078 4.42718e-18
8420.34837 4.72160e-18
8422.04596 4.99542e-18
8423.74354 4.98795e-18
8425.44113 4.80950e-18
8427.13872 4.62620e-18
8428.83631 4.56643e-18
8430.53390 4.73819e-18
8432.23148 5.01969e-18
8433.92907 5.21817e-18
8435.62666 5.29884e-18
8437.32425 5.28706e-18
8439.02184 5.19573e-18
8440.71943 5.04122e-18
8442.41701 4.86771e-18
8444.11460 4.73622e-18
8445.81219 4.64409e-18
8447.50978 4.53955e-18
8449.20737 4.45481e-18
8450.90495 4.48474e-18
8452.60254 4.66070e-18
8454.30013 4.96226e-18
8455.99772 5.28263e-18
8457.69531 5.39767e-18
8459.39289 5.23501e-18
8461.10053 4.96364e-18
8462.79812 4.71175e-18
8464.49570 4.51732e-18
8466.19329 4.41236e-18
8467.89088 4.39365e-18
8469.58847 4.45482e-18
8471.28606 4.63542e-18
8472.98364 4.92708e-18
8474.68123 5.12932e-18
8476.37882 5.09807e-18
8478.07641 5.02308e-18
8479.77400 5.09262e-18
8481.47158 5.26296e-18
8483.16917 5.46063e-18
8484.86676 5.57251e-18
8486.56435 5.49168e-18
8488.26194 5.38882e-18
8489.95952 5.48386e-18
8491.65711 5.71345e-18
8493.35470 5.93197e-18
8495.05229 5.97227e-18
8496.74988 5.67850e-18
8498.44747 5.12755e-18
8500.14505 4.49310e-18
8501.84264 4.15138e-18
8503.54023 4.59883e-18
8505.23782 5.63413e-18
8506.93541 6.55243e-18
8508.63299 6.95073e-18
8510.33058 6.67114e-18
8512.02817 5.96258e-18
8513.72576 5.58070e-18
8515.43339 5.77947e-18
8517.12093 6.08247e-18
8518.82857 6.21069e-18
8520.52616 6.19987e-18
8522.22374 6.09157e-18
8523.92133 5.99746e-18
8525.61892 5.98862e-18
8527.31651 6.00449e-18
8529.01410 5.97234e-18
8530.71168 5.74312e-18
8532.40927 5.26603e-18
8534.10686 4.94386e-18
8535.80445 5.10263e-18
8537.50204 5.46841e-18
8539.19962 5.72923e-18
8540.89721 5.85543e-18
8542.59480 5.86135e-18
8544.29239 5.80948e-18
8545.98998 5.78418e-18
8547.68757 5.76503e-18
8549.38515 5.69514e-18
8551.08274 5.67619e-18
8552.78033 5.86867e-18
8554.47792 6.01413e-18
8556.17551 5.68515e-18
8557.87309 5.11277e-18
8559.57068 4.84918e-18
8561.26827 5.09150e-18
8562.96586 5.82809e-18
8564.66345 6.72283e-18
8566.36103 7.18080e-18
8568.05862 6.98375e-18
8569.75621 6.26679e-18
8571.45380 5.44274e-18
8573.16143 5.28080e-18
8574.85902 6.01469e-18
8576.55661 7.08049e-18
8578.25420 7.96665e-18
8579.95178 8.23365e-18
8581.64937 7.77424e-18
8583.34696 7.30519e-18
8585.04455 7.30009e-18
8586.74214 7.41947e-18
8588.43972 7.37689e-18
8590.13731 7.13066e-18
8591.83490 6.69584e-18
8593.53249 6.34760e-18
8595.23008 6.33726e-18
8596.92767 6.64839e-18
8598.62525 7.19020e-18
8600.32284 7.67112e-18
8602.02043 7.79488e-18
8603.71802 7.60551e-18
8605.41561 7.24290e-18
8607.11319 6.88436e-18
8608.81078 6.71943e-18
8610.50837 6.69162e-18
8612.20596 6.65177e-18
8613.90355 6.55615e-18
8615.60113 6.39376e-18
8617.29872 6.30892e-18
8618.99631 6.54728e-18
8620.69390 7.01710e-18
8622.39149 7.38503e-18
8624.08907 7.58027e-18
8625.78666 7.73772e-18
8627.48425 7.95258e-18
8629.19188 8.32716e-18
8630.87943 8.70766e-18
8632.58706 8.55453e-18
8634.28465 7.80092e-18
8635.98224 7.14760e-18
8637.67982 6.98217e-18
8639.37741 7.08757e-18
8641.07500 7.25280e-18
8642.77259 7.24618e-18
8644.47018 6.95898e-18
8646.16776 6.75731e-18
8647.86535 6.90007e-18
8649.56294 7.09542e-18
8651.26053 7.08798e-18
8652.95812 6.97450e-18
8654.65571 6.87664e-18
8656.35329 6.88718e-18
8658.05088 7.07829e-18
8659.74847 7.35614e-18
8661.44606 7.59021e-18
8663.14365 7.72127e-18
8664.84123 7.71413e-18
8666.53882 7.56029e-18
8668.23641 7.27667e-18
8669.93400 6.91316e-18
8671.63159 6.53886e-18
8673.32917 6.24305e-18
8675.02676 6.10252e-18
8676.72435 6.22586e-18
8678.42194 6.74589e-18
8680.11953 7.45039e-18
8681.81711 7.86608e-18
8683.52475 7.87698e-18
8685.22234 7.70157e-18
8686.91992 7.48947e-18
8688.61751 7.32401e-18
8690.31510 7.25242e-18
8692.01269 7.23354e-18
8693.71028 7.25826e-18
8695.40786 7.40492e-18
8697.10545 7.64780e-18
8698.80304 7.73517e-18
8700.50063 7.54716e-18
8702.19822 7.32420e-18
8703.89581 7.24432e-18
8705.59339 7.22423e-18
8707.29098 7.19103e-18
8708.98857 7.15393e-18
8710.68616 7.12419e-18
8712.38375 7.15447e-18
8714.08133 7.28396e-18
8715.77892 7.39331e-18
8717.47651 7.36011e-18
8719.17410 7.23954e-18
8720.87169 7.12071e-18
8722.56927 7.12095e-18
8724.26686 7.35453e-18
8725.96445 7.65066e-18
8727.66204 7.74361e-18
8729.35963 7.61833e-18
8731.05721 7.37681e-18
8732.75480 7.09467e-18
8734.45239 6.83606e-18
8736.14998 6.70609e-18
8737.84757 6.82563e-18
8739.54516 7.14995e-18
8741.24274 7.50314e-18
8742.95038 7.75247e-18
8744.64796 7.81289e-18
8746.34555 7.68003e-18
8748.04314 7.44945e-18
8749.74073 7.23427e-18
8751.43832 7.15639e-18
8753.13590 7.26989e-18
8754.83349 7.54832e-18
8756.53108 7.82270e-18
8758.22867 7.53512e-18
8759.92626 6.49711e-18
8761.62385 5.60796e-18
8763.32143 5.54454e-18
8765.01902 6.02749e-18
8766.71661 6.70937e-18
8768.41420 7.26498e-18
8770.11179 7.41977e-18
8771.80937 7.33572e-18
8773.50696 7.23807e-18
8775.20455 7.18250e-18
8776.90214 7.19673e-18
8778.59973 7.20617e-18
8780.29731 7.10982e-18
8781.99490 6.95600e-18
8783.69249 6.83418e-18
8785.39008 6.75265e-18
8787.08767 6.69507e-18
8788.78526 6.62415e-18
8790.48284 6.48990e-18
8792.18043 6.33447e-18
8793.87802 6.24809e-18
8795.58565 6.27257e-18
8797.28324 6.42581e-18
8798.98083 6.60851e-18
8800.67842 6.60335e-18
8802.37600 6.41545e-18
8804.07359 6.30934e-18
8805.77118 6.33021e-18
8807.46877 6.22093e-18
8809.16636 5.91517e-18
8810.86395 5.64509e-18
8812.56153 5.53635e-18
8814.25912 5.52941e-18
8815.95671 5.53900e-18
8817.65430 5.39590e-18
8819.35189 5.01476e-18
8821.04947 4.57525e-18
8822.74706 4.25350e-18
8824.44465 4.15258e-18
8826.14224 4.32539e-18
8827.83983 4.58968e-18
8829.53741 4.76577e-18
8831.23500 4.96480e-18
8832.93259 5.31239e-18
8834.63018 5.77600e-18
8836.32777 6.29510e-18
8838.02535 6.60093e-18
8839.72294 6.39924e-18
8841.42053 6.01208e-18
8843.11812 5.95088e-18
8844.81571 6.18882e-18
8846.51330 6.49169e-18
8848.21088 6.67910e-18
8849.90847 6.56642e-18
8851.60606 6.32095e-18
8853.30365 6.36018e-18
8855.01128 6.62471e-18
8856.70887 6.67977e-18
8858.40646 6.47501e-18
8860.10405 6.31273e-18
8861.80163 6.29817e-18
8863.49922 6.33586e-18
8865.19681 6.35496e-18
8866.89440 6.26899e-18
8868.59199 6.13480e-18
8870.28957 6.31816e-18
8871.98716 6.90259e-18
8873.68475 7.33386e-18
8875.38234 7.27839e-18
8877.07993 7.03339e-18
8878.77751 6.84381e-18
8880.47510 6.68687e-18
8882.17269 6.55162e-18
8883.87028 6.48872e-18
8885.56787 6.52566e-18
8887.26545 6.62526e-18
8888.96304 6.73874e-18
8890.66063 6.78708e-18
8892.35822 6.70004e-18
8894.05581 6.59597e-18
8895.75340 6.62978e-18
8897.45098 6.66085e-18
8899.14857 6.46954e-18
8900.84616 6.27138e-18
8902.54375 6.41977e-18
8904.24134 6.72054e-18
8905.93892 6.76555e-18
8907.64656 6.42873e-18
8909.34414 5.70895e-18
8911.04173 4.96197e-18
8912.73932 4.81683e-18
8914.43691 5.21759e-18
8916.13450 5.51964e-18
8917.83209 5.53847e-18
8919.52967 5.54619e-18
8921.22726 5.67001e-18
8922.92485 5.90356e-18
8924.62244 6.18232e-18
8926.32003 6.31124e-18
8928.01761 6.20702e-18
8929.71520 6.01176e-18
8931.41279 5.83198e-18
8933.11038 5.66213e-18
8934.80797 5.52758e-18
8936.50555 5.55981e-18
8938.20314 5.81100e-18
8939.90073 6.06603e-18
8941.59832 6.13384e-18
8943.29591 6.01214e-18
8944.99349 5.74367e-18
8946.69108 5.48053e-18
8948.38867 5.37473e-18
8950.08626 5.45775e-18
8951.78385 5.71755e-18
8953.48144 5.93377e-18
8955.17902 5.85585e-18
8956.87661 5.60960e-18
8958.57420 5.42743e-18
8960.27179 5.43144e-18
8961.96938 5.71357e-18
8963.66696 6.02993e-18
8965.36455 5.96217e-18
8967.07219 5.63038e-18
8968.76977 5.46499e-18
8970.46736 5.57928e-18
8972.16495 5.89191e-18
8973.86254 6.16573e-18
8975.56013 5.97818e-18
8977.25771 5.39039e-18
8978.95530 5.04116e-18
8980.65289 5.09684e-18
8982.35048 5.06148e-18
8984.04807 4.77014e-18
8985.74565 4.59245e-18
8987.44324 4.71424e-18
8989.14083 4.95810e-18
8990.83842 5.24108e-18
8992.53601 5.78141e-18
8994.23359 6.59983e-18
8995.93118 7.06215e-18
8997.62877 6.73848e-18
8999.32636 6.05715e-18
9001.02395 5.48496e-18
9002.72154 5.34611e-18
9004.41912 5.84319e-18
9006.11671 6.44779e-18
9007.81430 6.56863e-18
9009.51189 6.25952e-18
9011.20948 5.71843e-18
9012.90706 5.23101e-18
9014.60465 5.10651e-18
9016.30224 5.19846e-18
9018.00987 5.20156e-18
9019.69742 5.08137e-18
9021.40505 4.90584e-18
9023.10264 4.76608e-18
9024.80023 4.77973e-18
9026.49781 4.91550e-18
9028.19540 5.03656e-18
9029.89299 5.11675e-18
9031.59058 5.21476e-18
9033.28817 5.32187e-18
9034.98575 5.38457e-18
9036.68334 5.34121e-18
9038.38093 5.08880e-18
9040.07852 4.72741e-18
9041.77611 4.67519e-18
9043.47369 5.05616e-18
9045.17128 5.47383e-18
9046.86887 5.64126e-18
9048.56646 5.49227e-18
9050.26405 5.07950e-18
9051.96164 4.80711e-18
9053.65922 4.95331e-18
9055.35681 5.26233e-18
9057.05440 5.48930e-18
9058.75199 5.67637e-18
9060.44958 5.85130e-18
9062.14716 5.76044e-18
9063.84475 5.21130e-18
9065.54234 4.65144e-18
9067.23993 4.58341e-18
9068.93752 4.83578e-18
9070.63510 5.08046e-18
9072.33269 5.41551e-18
9074.03028 6.02747e-18
9075.72787 6.54687e-18
9077.43550 6.45270e-18
9079.13309 5.75998e-18
9080.83068 4.72246e-18
9082.52827 3.77018e-18
9084.22585 3.43931e-18
9085.92344 3.73194e-18
9087.62103 4.26486e-18
9089.31862 4.77114e-18
9091.01621 5.06812e-18
9092.71379 5.14952e-18
9094.41138 5.23243e-18
9096.10897 5.38762e-18
9097.80656 5.46898e-18
9099.50415 5.46668e-18
9101.20173 5.58837e-18
9102.89932 5.86920e-18
9104.59691 6.01339e-18
9106.29450 5.86440e-18
9107.99209 5.59659e-18
9109.68968 5.35855e-18
9111.38726 5.19125e-18
9113.08485 5.12548e-18
9114.78244 5.17640e-18
9116.48003 5.32180e-18
9118.17762 5.37888e-18
9119.87520 5.20342e-18
9121.57279 4.99459e-18
9123.27038 4.97190e-18
9124.96797 5.15889e-18
9126.66556 5.52909e-18
9128.36314 5.81669e-18
9130.06073 5.71647e-18
9131.76837 5.43541e-18
9133.45591 5.33844e-18
9135.16354 5.42716e-18
9136.86113 5.56219e-18
9138.55872 5.70594e-18
9140.25631 5.85679e-18
9141.95389 5.96155e-18
9143.65148 5.94558e-18
9145.34907 5.80393e-18
9147.04666 5.59164e-18
9148.74425 5.32775e-18
9150.44183 4.98832e-18
9152.13942 4.66380e-18
9153.83701 4.56951e-18
9155.53460 4.76360e-18
9157.23219 5.09581e-18
9158.92978 5.42308e-18
9160.62736 5.62484e-18
9162.32495 5.61733e-18
9164.02254 5.39448e-18
9165.72013 5.01417e-18
9167.41772 4.64479e-18
9169.11530 4.44589e-18
9170.81289 4.55423e-18
9172.51048 5.00712e-18
9174.20807 5.47756e-18
9175.90566 5.67232e-18
9177.60324 5.68407e-18
9179.30083 5.64509e-18
9180.99842 5.66277e-18
9182.69601 5.82884e-18
9184.39360 5.87346e-18
9186.09118 5.49066e-18
9187.78877 4.99265e-18
9189.49641 4.83550e-18
9191.19399 5.01961e-18
9192.89158 5.38022e-18
9194.58917 5.81848e-18
9196.28676 6.25478e-18
9197.98435 6.51605e-18
9199.68193 6.39738e-18
9201.37952 5.98363e-18
9203.07711 5.54818e-18
9204.77470 5.25584e-18
9206.47229 5.18636e-18
9208.16987 5.30724e-18
9209.86746 5.45653e-18
9211.56505 5.55347e-18
9213.26264 5.64375e-18
9214.96023 5.69166e-18
9216.65782 5.51857e-18
9218.35540 5.15572e-18
9220.05299 5.03436e-18
9221.75058 5.32873e-18
9223.44817 5.62044e-18
9225.14576 5.61889e-18
9226.84334 5.41238e-18
9228.54093 5.11439e-18
9230.23852 4.91306e-18
9231.93611 4.94657e-18
9233.63370 4.99855e-18
9235.33128 4.87719e-18
9237.02887 4.87563e-18
9238.72646 5.26665e-18
9240.42405 5.66155e-18
9242.12164 5.60848e-18
9243.81923 5.31098e-18
9245.52686 5.11576e-18
9247.21440 4.83537e-18
9248.92203 4.15804e-18
9250.61962 3.44668e-18
9252.31721 3.28338e-18
9254.01480 3.61220e-18
9255.71239 4.09193e-18
9257.40997 4.51412e-18
9259.10756 4.71501e-18
9260.80515 4.79574e-18
9262.50274 5.07410e-18
9264.20033 5.53009e-18
9265.89792 5.84593e-18
9267.59550 5.92898e-18
9269.29309 5.91450e-18
9270.99068 5.86418e-18
9272.68827 5.77648e-18
9274.38586 5.61771e-18
9276.08344 5.24103e-18
9277.78103 4.72130e-18
9279.47862 4.60378e-18
9281.17621 5.13956e-18
9282.87380 5.90036e-18
9284.57138 6.47240e-18
9286.26897 6.48502e-18
9287.96656 5.79098e-18
9289.66415 5.18301e-18
9291.36174 5.30318e-18
9293.05932 5.54416e-18
9294.75691 5.28710e-18
9296.45450 4.73600e-18
9298.15209 4.19553e-18
9299.84968 3.69631e-18
9301.55731 3.22743e-18
9303.25490 3.26693e-18
9304.95249 4.35946e-18
9306.65007 5.50803e-18
9308.34766 5.26167e-18
9310.04525 4.37895e-18
9311.74284 4.46415e-18
9313.44043 5.54924e-18
9315.13802 6.93609e-18
9316.83560 7.98338e-18
9318.53319 8.03749e-18
9320.23078 7.15068e-18
9321.92837 5.95240e-18
9323.62596 4.95800e-18
9325.32354 4.54582e-18
9327.02113 4.88633e-18
9328.71872 5.91583e-18
9330.41631 7.19943e-18
9332.11390 7.77774e-18
9333.81148 7.30819e-18
9335.50907 6.55650e-18
9337.20666 6.04863e-18
9338.90425 5.73777e-18
9340.60184 5.59834e-18
9342.29942 5.61180e-18
9343.99701 5.72834e-18
9345.69460 5.94590e-18
9347.39219 6.22060e-18
9349.08978 6.27242e-18
9350.78737 5.91486e-18
9352.48495 5.56772e-18
9354.19259 5.64235e-18
9355.88013 5.95324e-18
9357.57772 6.22399e-18
9359.28535 6.32544e-18
9360.98294 6.16174e-18
9362.68053 5.75446e-18
9364.37811 5.19721e-18
9366.07570 4.49178e-18
9367.77329 3.60461e-18
9369.47088 2.94629e-18
9371.16847 3.09882e-18
9372.86606 3.87672e-18
9374.56364 4.67273e-18
9376.26123 5.24324e-18
9377.95882 5.58020e-18
9379.65641 5.70131e-18
9381.35400 5.66593e-18
9383.05158 5.59712e-18
9384.74917 5.68018e-18
9386.44676 5.88756e-18
9388.14435 5.90577e-18
9389.84194 5.65075e-18
9391.53952 5.40583e-18
9393.23711 5.30140e-18
9394.93470 5.16138e-18
9396.63229 4.96404e-18
9398.32988 5.02519e-18
9400.02746 5.53366e-18
9401.72505 6.47063e-18
9403.42264 7.60520e-18
9405.12023 7.80730e-18
9406.81782 6.36645e-18
9408.51541 4.75970e-18
9410.21299 4.40405e-18
9411.91058 4.97521e-18
9413.61821 5.90201e-18
9415.31580 6.71323e-18
9417.01339 6.97378e-18
9418.71098 6.64572e-18
9420.40857 5.83790e-18
9422.10616 5.29482e-18
9423.80374 5.90143e-18
9425.50133 7.15069e-18
9427.19892 8.02140e-18
9428.89651 8.10426e-18
9430.59410 7.28054e-18
9432.29168 5.99216e-18
9433.98927 5.00522e-18
9435.68686 4.80886e-18
9437.38445 5.72944e-18
9439.08204 7.15766e-18
9440.77962 7.60067e-18
9442.47721 6.83158e-18
9444.17480 6.03167e-18
9445.87239 5.78345e-18
9447.56998 5.93780e-18
9449.26756 6.24879e-18
9450.96515 6.17412e-18
9452.66274 5.54678e-18
9454.36033 5.02285e-18
9456.05792 5.06911e-18
9457.75551 5.71878e-18
9459.45309 6.80100e-18
9461.15068 7.52289e-18
9462.84827 7.30183e-18
9464.54586 6.44172e-18
9466.24345 5.38771e-18
9467.94103 4.99539e-18
9469.63862 5.91934e-18
9471.34625 7.02671e-18
9473.04384 7.06374e-18
9474.74143 6.41487e-18
9476.43902 5.77038e-18
9478.13661 5.38981e-18
9479.83420 5.41505e-18
9481.53178 5.85706e-18
9483.22937 6.66464e-18
9484.92696 7.15079e-18
9486.62455 6.38151e-18
9488.32214 4.86879e-18
9490.01972 3.87747e-18
9491.71731 3.63824e-18
9493.41490 3.74548e-18
9495.11249 3.99224e-18
9496.81008 4.27915e-18
9498.50766 4.51955e-18
9500.20525 4.65483e-18
9501.90284 4.81246e-18
9503.60043 5.35746e-18
9505.29802 6.25820e-18
9506.99561 6.93087e-18
9508.69319 6.97693e-18
9510.39078 6.24698e-18
9512.08837 4.94997e-18
9513.78596 4.10272e-18
9515.48355 4.31592e-18
9517.18113 5.04865e-18
9518.87872 5.75257e-18
9520.57631 6.06001e-18
9522.27390 5.72902e-18
9523.98153 5.04637e-18
9525.66907 4.36952e-18
9527.37671 4.00191e-18
9529.07430 4.17365e-18
9530.77188 4.59004e-18
9532.46947 4.87660e-18
9534.16706 5.11946e-18
9535.86465 5.48128e-18
9537.56224 5.86212e-18
9539.25982 6.11985e-18
9540.95741 6.13340e-18
9542.65500 5.78091e-18
9544.35259 5.37181e-18
9546.05018 5.42738e-18
9547.74776 5.72928e-18
9549.44535 5.63717e-18
9551.14294 5.23953e-18
9552.84053 5.09594e-18
9554.53812 5.32888e-18
9556.23570 5.75203e-18
9557.93329 6.08770e-18
9559.63088 5.91243e-18
9561.32847 5.29262e-18
9563.02606 4.91449e-18
9564.72365 5.17509e-18
9566.42123 6.10402e-18
9568.11882 7.34289e-18
9569.81641 7.68886e-18
9571.51400 6.64202e-18
9573.21159 5.46510e-18
9574.90917 5.03380e-18
9576.60676 4.88047e-18
9578.30435 4.62096e-18
9580.00194 4.27528e-18
9581.70957 3.90026e-18
9583.40716 3.84876e-18
9585.10475 4.39248e-18
9586.80234 5.16766e-18
9588.49992 5.75378e-18
9590.19751 5.81286e-18
9591.89510 5.09482e-18
9593.59269 4.42888e-18
9595.29028 4.83537e-18
9596.98786 5.73924e-18
9598.68545 6.11627e-18
9600.38304 5.79081e-18
9602.08063 4.89122e-18
9603.77822 3.97681e-18
9605.47580 3.83935e-18
9607.17339 4.45571e-18
9608.87098 5.29727e-18
9610.56857 5.99046e-18
9612.26616 6.27281e-18
9613.96375 6.05525e-18
9615.66133 5.41699e-18
9617.35892 4.66981e-18
9619.05651 4.37313e-18
9620.75410 4.66881e-18
9622.45169 5.16976e-18
9624.14927 5.41482e-18
9625.84686 4.70737e-18
9627.54445 3.09165e-18
9629.24204 2.24243e-18
9630.93963 3.07411e-18
9632.63721 4.50144e-18
9634.33480 5.57418e-18
9636.03239 5.91799e-18
9637.74002 5.40014e-18
9639.42757 4.93393e-18
9641.13520 5.30673e-18
9642.83279 5.95827e-18
9644.53038 6.25929e-18
9646.22796 6.14683e-18
9647.92555 5.65065e-18
9649.62314 5.21948e-18
9651.32073 5.36007e-18
9653.01832 5.49395e-18
9654.71590 4.81076e-18
9656.41349 3.77888e-18
9658.11108 3.25441e-18
9659.80867 3.40839e-18
9661.50626 4.12938e-18
9663.20384 5.08642e-18
9664.90143 5.80963e-18
9666.59902 6.10386e-18
9668.29661 5.97313e-18
9669.99420 5.57488e-18
9671.69179 5.19805e-18
9673.38937 5.02029e-18
9675.08696 5.08446e-18
9676.78455 5.37116e-18
9678.48214 5.79146e-18
9680.17973 6.17501e-18
9681.87731 6.27157e-18
9683.57490 5.92569e-18
9685.27249 5.08033e-18
9686.97008 3.96371e-18
9688.66767 3.49228e-18
9690.36525 4.09038e-18
9692.06284 4.70999e-18
9693.76043 4.61156e-18
9695.46806 4.40434e-18
9697.16565 4.60986e-18
9698.86324 5.12689e-18
9700.56083 5.78023e-18
9702.25842 6.13445e-18
9703.95600 5.80947e-18
9705.65359 5.05731e-18
9707.35118 4.25383e-18
9709.04877 3.77099e-18
9710.74636 3.93918e-18
9712.44394 4.47889e-18
9714.14153 4.92713e-18
9715.83912 5.16405e-18
9717.53671 5.18718e-18
9719.23430 5.20641e-18
9720.93189 5.53748e-18
9722.62947 6.11511e-18
9724.32706 6.66811e-18
9726.02465 6.95843e-18
9727.72224 6.75436e-18
9729.41983 6.17075e-18
9731.11741 5.64494e-18
9732.81500 5.31481e-18
9734.51259 4.98090e-18
9736.21018 4.64683e-18
9737.90777 4.57250e-18
9739.60535 4.80344e-18
9741.30294 5.06460e-18
9743.00053 5.21359e-18
9744.69812 5.37857e-18
9746.39571 5.60404e-18
9748.09329 5.74705e-18
9749.79088 5.70484e-18
9751.49852 5.43839e-18
9753.18606 4.98277e-18
9754.89369 4.66846e-18
9756.59128 4.74012e-18
9758.28887 4.86404e-18
9759.98646 4.71923e-18
9761.68404 4.55306e-18
9763.38163 4.63411e-18
9765.07922 4.82491e-18
9766.77681 4.93365e-18
9768.47440 4.76948e-18
9770.17199 4.16023e-18
9771.86957 3.47174e-18
9773.56716 3.23493e-18
9775.26475 3.29088e-18
9776.96234 3.21172e-18
9778.65993 2.99644e-18
9780.35751 2.82993e-18
9782.05510 2.81995e-18
9783.75269 3.05277e-18
9785.45028 3.44188e-18
9787.14787 3.74513e-18
9788.84545 3.95770e-18
9790.54304 4.32015e-18
9792.24063 4.77588e-18
9793.93822 4.89862e-18
9795.63581 4.69644e-18
9797.33339 4.82100e-18
9799.03098 5.38107e-18
9800.72857 5.54485e-18
9802.42616 4.92963e-18
9804.12375 4.01789e-18
9805.83138 3.29502e-18
9807.52897 3.36542e-18
9809.22656 4.41945e-18
9810.92414 5.18704e-18
9812.62173 4.70695e-18
9814.31932 3.68825e-18
9816.01691 2.89106e-18
9817.71450 2.55753e-18
9819.41208 2.82199e-18
9821.10967 3.30269e-18
9822.80726 3.54782e-18
9824.50485 3.67773e-18
9826.20244 3.90802e-18
9827.90003 4.23438e-18
9829.59761 4.61732e-18
9831.29520 4.77851e-18
9832.99279 4.37316e-18
9834.69038 3.69745e-18
9836.38797 3.30232e-18
9838.08555 3.37687e-18
9839.78314 3.93922e-18
9841.48073 4.59975e-18
9843.17832 4.67204e-18
9844.87591 4.15409e-18
9846.57349 3.61296e-18
9848.27108 3.28779e-18
9849.96867 3.10297e-18
9851.66626 3.03468e-18
9853.36385 3.07919e-18
9855.06143 3.20239e-18
9856.75902 3.36929e-18
9858.45661 3.48454e-18
9860.15420 3.35980e-18
9861.85179 2.87895e-18
9863.54938 2.00036e-18
9865.25701 8.95923e-19
9866.95460 3.46462e-19
9868.65218 8.44809e-19
9870.34977 1.83686e-18
9872.04736 2.74091e-18
9873.74495 3.23808e-18
9875.44254 3.12698e-18
9877.14013 2.83564e-18
9878.83771 2.83821e-18
9880.53530 2.90065e-18
9882.23289 2.70493e-18
9883.93048 2.53684e-18
9885.62807 2.76420e-18
9887.32565 3.14868e-18
9889.02324 3.29969e-18
9890.72083 3.11369e-18
9892.41842 2.59055e-18
9894.11601 1.97067e-18
9895.81359 1.63258e-18
9897.51118 1.54486e-18
9899.20877 1.40768e-18
9900.90636 1.32376e-18
9902.60395 1.69616e-18
9904.30153 2.35915e-18
9905.99912 2.64707e-18
9907.69671 2.52244e-18
9909.39430 2.60391e-18
9911.09189 3.12930e-18
9912.78948 3.89911e-18
9914.48706 4.59369e-18
9916.18465 4.63017e-18
9917.89228 3.83236e-18
9919.58987 2.82702e-18
9921.28746 2.14268e-18
9922.98505 2.10899e-18
9924.68264 2.71663e-18
9926.38022 2.85128e-18
9928.07781 1.74665e-18
9929.77540 8.28036e-20
9931.47299 -1.32720e-18
9933.17058 -1.36836e-18
9934.86817 7.23513e-19
9936.56575 3.28368e-18
9938.26334 4.46202e-18
9939.96093 4.39362e-18
9941.65852 3.63333e-18
9943.35611 2.74551e-18
9945.05369 2.33750e-18
9946.75128 2.24926e-18
9948.44887 2.05273e-18
9950.14646 1.72130e-18
9951.84405 1.34966e-18
9953.54163 1.16340e-18
9955.23922 1.49890e-18
9956.93681 2.05460e-18
9958.63440 2.08445e-18
9960.33199 1.77644e-18
9962.02958 2.04981e-18
9963.72716 2.86388e-18
9965.42475 3.32912e-18
9967.12234 3.07053e-18
9968.81993 2.17665e-18
9970.51752 1.18196e-18
9972.21510 1.42922e-18
9973.91269 3.04941e-18
9975.61028 3.94004e-18
9977.31791 3.06444e-18
9979.01550 1.68986e-18
9980.71309 8.24881e-19
9982.41068 8.03044e-19
9984.10827 1.70812e-18
9985.80585 2.56089e-18
9987.50344 2.66228e-18
9989.20103 3.27193e-18
9990.89862 5.34845e-18
9992.59621 7.36984e-18
9994.29379 7.79426e-18
9995.99138 6.58100e-18
9997.68897 4.06801e-18
9999.38656 1.64304e-18
