# SIMPLE = T / Written by IDL: Sun Aug 4 17:36:32 2013 
# BITPIX = -32 / IEEE single precision floating point 
# NAXIS = 1 / Number of axes 
# NAXIS1 = 3751 /Number of positions along axis 1 
# EXTEND = T / File may contain extensions 
# ORIGIN = 'NOAO-IRAF FITS Image Kernel July 2003' / FITS file originator 
# DATE = '2013-08-04T13:04:21' / Date FITS file was generated 
# IRAF-TLM= '2013-08-04T13:04:21' / Time of last modification 
# COMMENT FITS (Flexible Image Transport System) format defined in Astronomy and
# COMMENT Astrophysics Supplement Series v44/p363, v44/p371, v73/p359, v73/p365.
# COMMENT Contact the NASA Science Office of Standards and Technology for the 
# COMMENT FITS Definition document #100 and other FITS information. 
# OBJECT = '13bvn ' / object title 
# OBSERVER= 'Waszczak' / observer 
# IMGTYPE = 'object ' / observation type 
# GAIN = 2.8 / e-/adu 
# RON = 8.5 / system noise 
# DICHROIC= 'D55 ' / Dichroic 
# APERTURE= '1.5 ' / aperture (arcsecs) 
# TURRET = 'APERTURE' / turret position 
# LAMPS = '0000000 ' / lamps: D-FeAr-Hg-Ar-Ne-He-InCand 
# RFILTER = 'OPEN ' / filter wheel 
# OEXPTIME= 600. / originaly req. exposure time 
# EXPTIME = 600. / actual exposure time 
# UTSHUT = '2013-08-04T05:22:58.070' / UT shutter open 
# NAMPSXY = '1 1 ' / number of amplifiers in y x 
# CCDSUM = '1 1 ' / binning in x y 
# ASEC1 = '[1:4141,1:440]' / amplifier section 1(LL) 
# BSEC1 = '[4122:4141,1:440]' / bias section 1(LL) 
# CSEC1 = '[1:4121,1:440]' / ccd section 1(LL) 
# DSEC1 = '[1:4121,1:440]' / data section 1(LL) 
# TSEC1 = '[8:4121,1:440]' / trim section 1(LL) 
# ROISEC = '[1:4114,780:1219]' / roi section 
# DETID = 'LBNL_4Kx2K_1' / detector ID 
# DETNUM = '1 ' / Detector Number 
# DETNAM = 'LBNL_4Kx2K' / detector name 
# FPA = 'DBSP_RED2' / focal plan array 
# UTC = '216 05:22:58.1' / <elapsed days> <time-obs> 
# UT = '05:22:58.1' / time-obs 
# OBSLST = '18:27:17.7' / lst-obs 
# RA = '15:00:00.16' / Right Ascencion 
# DEC = '+01:52:55.6' / Declination 
# HOURANG = 'W03:26:35.2' / Hour angle, TCS format 
# HA = '+03:26:35.2' / Hour angle 
# AIRMASS = '1.921747' / Airmass 
# TELID = '200 ' / telescope ID 
# TELFOCUS= '39.81 mm' / focus position 
# CASSPA = '51.01 ' / cass ring angle 
# PARALLAC= '50.87 ' / parallactic angle 
# DHE = 'SDSU Gen III' / controller info 
# CCDTEMP = '130.020 ' / detector mount temp 
# SOFTVER = '3.4 ' / software version 
# HDR_REV = '4.3 ' / gfits version 
# GCOMMENT= ' ' / comment 
# ANGLE = '24 deg 38.2 min' / Grating Angle 
# GRATING = '316/7500' / lines/mm & Blaze 
# CRVAL1 = 3280.00 / 
# CRPIX1 = 1 / 
# DATE-OBS= '2013-08-04' 
# OBSERVAT= 'palomar ' 
# TIME = '05:22:58.1' 
# OPT_PA = 51.337295893141 
# IMCMB001= 'red0045.fits' 
# NCOMBINE= 1 
# TTIME = 600. 
# TELESCOP= 'P200 ' 
# ST = '18:27:17.15' 
# EPOCH = 2013.58993643686 
# UTMIDDLE= '5:27:58.1' 
# BANDID1 = 'spectrum - background fit, weights variance, clean yes' 
# BANDID2 = 'raw - background fit, weights none, clean no' 
# BANDID3 = 'background - background fit' 
# BANDID4 = 'sigma - background fit, weights variance, clean yes' 
# APNUM1 = '1 1 109.54 119.54' 
# DC-FLAG = 0 
# DCLOG1 = 'REFSPEC1 = arc_redc.ms' 
# FLUX_Z = 1.01882900000 / 
# FLUX_NUM= 0 / 
# FLUX_OBJ= 'BD+332642' / 
# OBS_PA = 51.0100000000 /observed position angle 
# CDELT1 = 2.00000 / 
# CTYPE1 = 'LINEAR ' / 
# W_RANGE = '5320 10780' / 
# BSTAR_Z = 1.01882900000 / 
# BSTARNUM= 0 / 
# BSTAROBJ= 'BD+332642' / 
# BARYVEL = -28.2183540664 / 
# SKYSHIFT= -0.307537268697 / 
# ATMSHIFT= 1.20000000000 / 
# EXTRACT = 'optimal ' / 
# REDUCER = 'iair ' / 
# RED_DATE= 'Sun Aug 4 17:36:32 2013' /EPOCH OF REDUCTION 
# END 
# RED_DATE= 'Sun Aug 4 17:33:51 2013' /EPOCH OF REDUCTION 
# END 
# 
      3280.00  3.05305e-17
      3282.00  4.52592e-17
      3284.00  1.03261e-16
      3286.00  5.66264e-17
      3288.00  1.23888e-17
      3290.00 -3.80347e-17
      3292.00  9.51211e-17
      3294.00  3.13768e-17
      3296.00  1.70226e-16
      3298.00  1.61112e-16
      3300.00  2.10855e-16
      3302.00  3.25649e-17
      3304.00  6.32011e-17
      3306.00  1.61815e-16
      3308.00  3.88978e-17
      3310.00 -9.91996e-18
      3312.00  7.47980e-17
      3314.00  9.78835e-17
      3316.00  4.20496e-17
      3318.00  2.53299e-17
      3320.00  1.19274e-16
      3322.00  3.53837e-17
      3324.00  3.78922e-18
      3326.00  1.58201e-16
      3328.00  5.99436e-17
      3330.00  6.12044e-17
      3332.00  1.10809e-17
      3334.00  7.03831e-17
      3336.00  1.15438e-16
      3338.00  8.13285e-17
      3340.00  4.81035e-17
      3342.00  1.09258e-16
      3344.00  5.89231e-17
      3346.00 -1.13581e-17
      3348.00  1.35036e-17
      3350.00  1.18840e-16
      3352.00  1.18916e-16
      3354.00  1.16899e-16
      3356.00  6.81456e-17
      3358.00  8.65674e-17
      3360.00  1.02739e-16
      3362.00  9.64639e-17
      3364.00  9.00612e-17
      3366.00  2.89712e-17
      3368.00  8.70193e-17
      3370.00  8.96988e-17
      3372.00  1.11676e-16
      3374.00  8.16676e-17
      3376.00  5.84437e-17
      3378.00  5.03151e-17
      3380.00  6.43222e-17
      3382.00 -1.38319e-17
      3384.00  8.59517e-17
      3386.00  8.65906e-17
      3388.00  6.96017e-17
      3390.00  1.21490e-17
      3392.00  2.40230e-17
      3394.00  9.21794e-17
      3396.00  2.83898e-17
      3398.00  8.34303e-17
      3400.00  5.12141e-17
      3402.00  6.91999e-17
      3404.00  1.28327e-16
      3406.00  5.38646e-17
      3408.00  2.02364e-17
      3410.00  8.41495e-17
      3412.00  5.66328e-17
      3414.00 -4.97722e-18
      3416.00  4.29246e-17
      3418.00  7.92343e-17
      3420.00  1.11687e-16
      3422.00  8.15026e-17
      3424.00  8.76228e-17
      3426.00  1.10122e-16
      3428.00  9.62335e-17
      3430.00  9.13277e-17
      3432.00  5.37546e-17
      3434.00  6.62590e-17
      3436.00  9.70832e-17
      3438.00  2.34317e-17
      3440.00  7.98205e-17
      3442.00  5.72618e-17
      3444.00  9.63873e-17
      3446.00  5.93511e-17
      3448.00  3.23391e-17
      3450.00  6.99619e-17
      3452.00  8.90893e-17
      3454.00  9.08154e-17
      3456.00  1.23040e-16
      3458.00  1.24364e-16
      3460.00  1.06570e-16
      3462.00  8.48916e-17
      3464.00  9.73191e-17
      3466.00  7.24011e-17
      3468.00  7.18740e-17
      3470.00  8.21469e-17
      3472.00  1.23514e-16
      3474.00  1.22614e-16
      3476.00  9.56537e-17
      3478.00  1.54095e-16
      3480.00  1.30340e-16
      3482.00  1.37102e-16
      3484.00  1.06866e-16
      3486.00  8.91490e-17
      3488.00  1.33822e-16
      3490.00  1.44160e-16
      3492.00  1.26612e-16
      3494.00  1.19428e-16
      3496.00  1.72661e-16
      3498.00  1.48578e-16
      3500.00  1.15671e-16
      3502.00  1.06204e-16
      3504.00  8.99141e-17
      3506.00  1.15729e-16
      3508.00  1.27410e-16
      3510.00  8.93574e-17
      3512.00  1.04904e-16
      3514.00  1.32536e-16
      3516.00  1.07052e-16
      3518.00  1.05651e-16
      3520.00  1.21441e-16
      3522.00  1.35277e-16
      3524.00  1.14711e-16
      3526.00  1.44597e-16
      3528.00  8.70512e-17
      3530.00  9.13045e-17
      3532.00  1.09990e-16
      3534.00  1.39227e-16
      3536.00  1.16545e-16
      3538.00  4.96549e-17
      3540.00  7.91938e-17
      3542.00  6.83958e-17
      3544.00  6.99415e-17
      3546.00  6.31908e-17
      3548.00  6.00199e-17
      3550.00  7.18002e-17
      3552.00  7.29213e-17
      3554.00  1.07521e-16
      3556.00  5.46273e-17
      3558.00  8.17685e-17
      3560.00  1.20333e-16
      3562.00  9.23629e-17
      3564.00  1.16150e-16
      3566.00  9.59311e-17
      3568.00  6.59044e-17
      3570.00  7.06126e-17
      3572.00  9.81556e-17
      3574.00  1.02768e-16
      3576.00  1.04995e-16
      3578.00  8.83499e-17
      3580.00  9.31462e-17
      3582.00  7.63787e-17
      3584.00  8.02488e-17
      3586.00  8.47462e-17
      3588.00  1.00618e-16
      3590.00  1.40122e-16
      3592.00  7.39777e-17
      3594.00  8.93304e-17
      3596.00  1.39598e-16
      3598.00  9.40435e-17
      3600.00  1.04709e-16
      3602.00  1.15850e-16
      3604.00  1.03925e-16
      3606.00  9.94833e-17
      3608.00  9.94494e-17
      3610.00  1.11424e-16
      3612.00  1.02463e-16
      3614.00  1.11432e-16
      3616.00  1.09593e-16
      3618.00  1.17960e-16
      3620.00  1.02162e-16
      3622.00  9.16505e-17
      3624.00  8.50338e-17
      3626.00  8.69422e-17
      3628.00  7.31924e-17
      3630.00  8.69784e-17
      3632.00  1.15790e-16
      3634.00  7.93827e-17
      3636.00  1.07613e-16
      3638.00  7.91288e-17
      3640.00  8.47082e-17
      3642.00  7.70341e-17
      3644.00  9.58284e-17
      3646.00  8.13281e-17
      3648.00  1.36830e-16
      3650.00  7.08114e-17
      3652.00  1.41834e-16
      3654.00  1.26171e-16
      3656.00  1.51271e-16
      3658.00  1.46891e-16
      3660.00  1.36743e-16
      3662.00  1.57378e-16
      3664.00  8.16069e-17
      3666.00  9.72997e-17
      3668.00  1.23723e-16
      3670.00  1.39041e-16
      3672.00  1.34790e-16
      3674.00  1.20173e-16
      3676.00  1.13740e-16
      3678.00  1.13237e-16
      3680.00  1.10908e-16
      3682.00  1.29624e-16
      3684.00  1.23802e-16
      3686.00  1.14061e-16
      3688.00  1.03190e-16
      3690.00  1.27809e-16
      3692.00  9.80776e-17
      3694.00  9.46373e-17
      3696.00  8.14402e-17
      3698.00  1.01498e-16
      3700.00  1.19120e-16
      3702.00  9.05065e-17
      3704.00  6.93158e-17
      3706.00  6.60328e-17
      3708.00  9.79172e-17
      3710.00  8.18321e-17
      3712.00  8.59617e-17
      3714.00  8.29004e-17
      3716.00  7.99378e-17
      3718.00  8.65985e-17
      3720.00  8.64442e-17
      3722.00  8.97915e-17
      3724.00  6.93833e-17
      3726.00  8.98362e-17
      3728.00  8.89153e-17
      3730.00  7.49315e-17
      3732.00  6.34103e-17
      3734.00  7.11428e-17
      3736.00  9.91232e-17
      3738.00  7.19844e-17
      3740.00  7.36917e-17
      3742.00  6.76595e-17
      3744.00  5.37219e-17
      3746.00  6.35243e-17
      3748.00  8.17304e-17
      3750.00  6.72987e-17
      3752.00  6.45756e-17
      3754.00  5.07719e-17
      3756.00  5.25376e-17
      3758.00  4.51823e-17
      3760.00  2.64302e-17
      3762.00  2.22000e-17
      3764.00  3.74601e-17
      3766.00  2.94459e-17
      3768.00  5.73248e-17
      3770.00  5.06633e-17
      3772.00  2.70030e-17
      3774.00  5.47103e-17
      3776.00  3.29129e-17
      3778.00  4.62640e-17
      3780.00  3.35121e-17
      3782.00  4.53931e-17
      3784.00  4.00184e-17
      3786.00  3.42826e-17
      3788.00  4.33484e-17
      3790.00  5.29068e-17
      3792.00  5.68589e-17
      3794.00  6.49102e-17
      3796.00  4.49670e-17
      3798.00  4.65910e-17
      3800.00  6.29540e-17
      3802.00  5.29110e-17
      3804.00  4.82996e-17
      3806.00  5.92662e-17
      3808.00  2.54901e-17
      3810.00  4.11081e-17
      3812.00  3.38846e-17
      3814.00  4.47857e-17
      3816.00  4.92551e-17
      3818.00  3.80294e-17
      3820.00  3.78198e-17
      3822.00  2.75376e-17
      3824.00  4.60607e-17
      3826.00  5.65117e-17
      3828.00  4.79630e-17
      3830.00  4.07318e-17
      3832.00  5.92692e-17
      3834.00  4.79198e-17
      3836.00  4.25701e-17
      3838.00  3.22506e-17
      3840.00  6.36829e-17
      3842.00  3.83377e-17
      3844.00  4.43797e-17
      3846.00  5.46151e-17
      3848.00  5.77497e-17
      3850.00  7.03538e-17
      3852.00  4.62801e-17
      3854.00  4.54041e-17
      3856.00  3.39450e-17
      3858.00  5.53371e-17
      3860.00  5.79666e-17
      3862.00  6.44848e-17
      3864.00  5.82870e-17
      3866.00  6.61443e-17
      3868.00  5.61928e-17
      3870.00  5.36209e-17
      3872.00  5.52771e-17
      3874.00  6.32862e-17
      3876.00  7.04631e-17
      3878.00  5.20261e-17
      3880.00  6.71243e-17
      3882.00  6.48978e-17
      3884.00  7.07659e-17
      3886.00  6.95425e-17
      3888.00  8.87929e-17
      3890.00  9.78598e-17
      3892.00  7.60162e-17
      3894.00  9.01652e-17
      3896.00  8.96614e-17
      3898.00  8.84426e-17
      3900.00  1.07085e-16
      3902.00  6.99234e-17
      3904.00  9.37436e-17
      3906.00  8.92588e-17
      3908.00  1.25048e-16
      3910.00  1.24460e-16
      3912.00  1.44890e-16
      3914.00  1.22679e-16
      3916.00  1.55556e-16
      3918.00  1.66439e-16
      3920.00  1.54613e-16
      3922.00  1.64871e-16
      3924.00  1.71714e-16
      3926.00  1.87627e-16
      3928.00  2.10347e-16
      3930.00  2.16395e-16
      3932.00  2.07228e-16
      3934.00  2.28735e-16
      3936.00  2.30044e-16
      3938.00  2.52593e-16
      3940.00  2.47528e-16
      3942.00  2.40254e-16
      3944.00  2.39650e-16
      3946.00  2.45341e-16
      3948.00  2.59140e-16
      3950.00  2.62117e-16
      3952.00  2.16854e-16
      3954.00  2.21552e-16
      3956.00  2.37127e-16
      3958.00  2.31190e-16
      3960.00  2.40377e-16
      3962.00  2.04417e-16
      3964.00  2.25039e-16
      3966.00  1.88948e-16
      3968.00  2.22182e-16
      3970.00  2.21574e-16
      3972.00  2.12651e-16
      3974.00  2.07172e-16
      3976.00  2.31765e-16
      3978.00  2.12973e-16
      3980.00  2.05815e-16
      3982.00  2.22516e-16
      3984.00  2.19161e-16
      3986.00  2.29643e-16
      3988.00  1.93285e-16
      3990.00  2.28398e-16
      3992.00  2.19149e-16
      3994.00  2.05488e-16
      3996.00  1.97488e-16
      3998.00  2.24530e-16
      4000.00  2.40672e-16
      4002.00  2.37551e-16
      4004.00  2.54934e-16
      4006.00  2.27621e-16
      4008.00  2.27466e-16
      4010.00  2.44164e-16
      4012.00  2.26221e-16
      4014.00  2.41157e-16
      4016.00  2.37108e-16
      4018.00  2.44609e-16
      4020.00  2.25510e-16
      4022.00  2.40864e-16
      4024.00  2.66552e-16
      4026.00  2.73462e-16
      4028.00  2.37113e-16
      4030.00  2.49015e-16
      4032.00  2.44973e-16
      4034.00  2.63945e-16
      4036.00  2.64557e-16
      4038.00  2.64324e-16
      4040.00  2.71303e-16
      4042.00  2.85539e-16
      4044.00  2.81364e-16
      4046.00  2.58191e-16
      4048.00  2.72786e-16
      4050.00  2.81253e-16
      4052.00  2.85531e-16
      4054.00  2.88796e-16
      4056.00  3.09646e-16
      4058.00  2.90145e-16
      4060.00  2.79704e-16
      4062.00  2.73251e-16
      4064.00  2.77835e-16
      4066.00  2.90071e-16
      4068.00  2.94634e-16
      4070.00  2.84820e-16
      4072.00  2.65801e-16
      4074.00  2.62758e-16
      4076.00  2.71326e-16
      4078.00  2.81571e-16
      4080.00  2.73399e-16
      4082.00  2.75169e-16
      4084.00  2.74286e-16
      4086.00  2.87892e-16
      4088.00  2.47266e-16
      4090.00  2.66874e-16
      4092.00  2.50405e-16
      4094.00  2.59878e-16
      4096.00  2.63677e-16
      4098.00  2.62560e-16
      4100.00  2.46910e-16
      4102.00  2.77464e-16
      4104.00  2.54650e-16
      4106.00  2.67174e-16
      4108.00  2.81268e-16
      4110.00  2.83155e-16
      4112.00  2.58956e-16
      4114.00  2.54973e-16
      4116.00  2.41314e-16
      4118.00  2.30380e-16
      4120.00  2.37996e-16
      4122.00  2.47207e-16
      4124.00  2.44004e-16
      4126.00  2.49064e-16
      4128.00  2.44327e-16
      4130.00  2.58582e-16
      4132.00  2.45444e-16
      4134.00  2.67385e-16
      4136.00  2.25800e-16
      4138.00  2.43478e-16
      4140.00  2.37454e-16
      4142.00  2.49080e-16
      4144.00  2.27203e-16
      4146.00  2.33211e-16
      4148.00  2.29695e-16
      4150.00  2.41191e-16
      4152.00  2.51068e-16
      4154.00  2.52022e-16
      4156.00  2.55682e-16
      4158.00  2.55034e-16
      4160.00  2.53746e-16
      4162.00  2.40637e-16
      4164.00  2.13375e-16
      4166.00  2.30964e-16
      4168.00  2.36709e-16
      4170.00  2.47745e-16
      4172.00  2.34856e-16
      4174.00  2.31013e-16
      4176.00  2.62181e-16
      4178.00  2.43615e-16
      4180.00  2.47350e-16
      4182.00  2.35519e-16
      4184.00  2.30798e-16
      4186.00  2.35426e-16
      4188.00  2.18481e-16
      4190.00  2.31439e-16
      4192.00  2.35184e-16
      4194.00  2.20493e-16
      4196.00  2.36014e-16
      4198.00  2.43374e-16
      4200.00  2.33473e-16
      4202.00  2.34068e-16
      4204.00  2.36186e-16
      4206.00  2.30512e-16
      4208.00  2.34325e-16
      4210.00  2.22667e-16
      4212.00  2.37890e-16
      4214.00  2.33912e-16
      4216.00  2.27159e-16
      4218.00  2.21987e-16
      4220.00  2.42172e-16
      4222.00  2.51463e-16
      4224.00  2.33155e-16
      4226.00  2.17941e-16
      4228.00  2.24036e-16
      4230.00  2.26206e-16
      4232.00  2.33787e-16
      4234.00  2.19101e-16
      4236.00  2.49593e-16
      4238.00  2.42066e-16
      4240.00  2.29221e-16
      4242.00  2.11952e-16
      4244.00  2.03111e-16
      4246.00  2.19926e-16
      4248.00  2.41389e-16
      4250.00  2.23033e-16
      4252.00  2.31945e-16
      4254.00  2.14924e-16
      4256.00  2.07873e-16
      4258.00  2.37269e-16
      4260.00  2.40849e-16
      4262.00  2.22038e-16
      4264.00  2.30179e-16
      4266.00  2.24255e-16
      4268.00  2.42744e-16
      4270.00  2.23885e-16
      4272.00  2.23831e-16
      4274.00  2.31548e-16
      4276.00  2.23100e-16
      4278.00  2.43236e-16
      4280.00  2.20679e-16
      4282.00  2.29448e-16
      4284.00  2.53154e-16
      4286.00  2.39935e-16
      4288.00  2.15483e-16
      4290.00  2.26418e-16
      4292.00  2.14426e-16
      4294.00  2.26271e-16
      4296.00  2.38064e-16
      4298.00  2.35887e-16
      4300.00  2.25518e-16
      4302.00  2.21278e-16
      4304.00  2.16491e-16
      4306.00  2.12270e-16
      4308.00  2.28794e-16
      4310.00  2.15657e-16
      4312.00  2.18333e-16
      4314.00  2.21432e-16
      4316.00  2.32590e-16
      4318.00  2.35790e-16
      4320.00  2.29517e-16
      4322.00  2.36006e-16
      4324.00  2.20351e-16
      4326.00  2.06123e-16
      4328.00  2.13727e-16
      4330.00  2.03280e-16
      4332.00  2.24985e-16
      4334.00  2.33041e-16
      4336.00  2.32281e-16
      4338.00  2.09388e-16
      4340.00  2.06156e-16
      4342.00  2.01660e-16
      4344.00  2.22477e-16
      4346.00  2.12721e-16
      4348.00  2.00753e-16
      4350.00  2.28232e-16
      4352.00  2.24042e-16
      4354.00  2.10959e-16
      4356.00  1.48404e-16
      4358.00  1.84006e-16
      4360.00  2.15368e-16
      4362.00  2.11031e-16
      4364.00  2.14351e-16
      4366.00  2.30431e-16
      4368.00  2.23512e-16
      4370.00  2.17675e-16
      4372.00  2.11956e-16
      4374.00  2.08536e-16
      4376.00  2.24232e-16
      4378.00  2.19614e-16
      4380.00  2.15027e-16
      4382.00  1.95619e-16
      4384.00  1.98867e-16
      4386.00  2.06986e-16
      4388.00  2.05528e-16
      4390.00  1.73700e-16
      4392.00  1.93084e-16
      4394.00  1.75825e-16
      4396.00  1.85800e-16
      4398.00  1.73252e-16
      4400.00  1.77742e-16
      4402.00  1.81725e-16
      4404.00  1.55191e-16
      4406.00  1.60065e-16
      4408.00  1.57867e-16
      4410.00  1.67019e-16
      4412.00  1.73394e-16
      4414.00  1.91687e-16
      4416.00  1.81314e-16
      4418.00  1.81246e-16
      4420.00  1.83341e-16
      4422.00  1.67706e-16
      4424.00  1.96065e-16
      4426.00  1.69159e-16
      4428.00  2.04240e-16
      4430.00  1.94566e-16
      4432.00  1.95880e-16
      4434.00  2.27776e-16
      4436.00  2.04701e-16
      4438.00  1.98378e-16
      4440.00  2.13231e-16
      4442.00  2.04632e-16
      4444.00  2.01299e-16
      4446.00  2.18789e-16
      4448.00  2.14295e-16
      4450.00  2.24011e-16
      4452.00  1.95249e-16
      4454.00  2.12776e-16
      4456.00  1.96348e-16
      4458.00  2.03818e-16
      4460.00  2.25370e-16
      4462.00  2.24937e-16
      4464.00  2.06367e-16
      4466.00  1.87213e-16
      4468.00  2.16003e-16
      4470.00  2.07900e-16
      4472.00  2.12507e-16
      4474.00  2.14597e-16
      4476.00  2.28177e-16
      4478.00  2.15152e-16
      4480.00  2.11139e-16
      4482.00  2.13984e-16
      4484.00  2.03453e-16
      4486.00  2.15194e-16
      4488.00  2.00739e-16
      4490.00  2.11877e-16
      4492.00  2.35331e-16
      4494.00  2.15847e-16
      4496.00  2.01811e-16
      4498.00  2.02276e-16
      4500.00  2.03951e-16
      4502.00  2.03376e-16
      4504.00  2.05780e-16
      4506.00  1.98727e-16
      4508.00  2.14675e-16
      4510.00  2.07168e-16
      4512.00  2.28275e-16
      4514.00  2.17136e-16
      4516.00  2.30176e-16
      4518.00  2.35183e-16
      4520.00  2.32547e-16
      4522.00  2.14853e-16
      4524.00  2.37531e-16
      4526.00  2.20979e-16
      4528.00  2.16649e-16
      4530.00  2.30703e-16
      4532.00  2.39444e-16
      4534.00  2.44276e-16
      4536.00  2.36585e-16
      4538.00  2.49405e-16
      4540.00  2.77699e-16
      4542.00  2.65724e-16
      4544.00  2.58013e-16
      4546.00  2.63941e-16
      4548.00  2.83025e-16
      4550.00  2.91624e-16
      4552.00  2.74704e-16
      4554.00  2.94204e-16
      4556.00  3.01265e-16
      4558.00  3.03329e-16
      4560.00  3.03473e-16
      4562.00  3.04406e-16
      4564.00  2.83042e-16
      4566.00  3.01929e-16
      4568.00  3.13960e-16
      4570.00  3.05728e-16
      4572.00  3.10623e-16
      4574.00  3.26058e-16
      4576.00  3.52053e-16
      4578.00  3.20835e-16
      4580.00  3.29388e-16
      4582.00  3.21735e-16
      4584.00  3.33077e-16
      4586.00  3.38910e-16
      4588.00  3.51322e-16
      4590.00  3.71065e-16
      4592.00  3.61535e-16
      4594.00  3.65835e-16
      4596.00  3.53174e-16
      4598.00  3.63438e-16
      4600.00  3.69626e-16
      4602.00  3.62759e-16
      4604.00  3.65347e-16
      4606.00  3.74298e-16
      4608.00  3.85124e-16
      4610.00  3.74471e-16
      4612.00  3.67947e-16
      4614.00  3.89829e-16
      4616.00  3.82383e-16
      4618.00  3.76216e-16
      4620.00  3.93899e-16
      4622.00  3.65830e-16
      4624.00  3.68225e-16
      4626.00  3.69586e-16
      4628.00  3.56141e-16
      4630.00  3.62423e-16
      4632.00  3.58356e-16
      4634.00  3.65191e-16
      4636.00  3.46780e-16
      4638.00  3.38812e-16
      4640.00  3.40989e-16
      4642.00  3.64436e-16
      4644.00  3.25156e-16
      4646.00  3.24944e-16
      4648.00  3.39059e-16
      4650.00  3.24294e-16
      4652.00  3.31116e-16
      4654.00  3.24623e-16
      4656.00  3.21946e-16
      4658.00  3.29184e-16
      4660.00  3.28314e-16
      4662.00  3.25443e-16
      4664.00  3.29021e-16
      4666.00  3.37503e-16
      4668.00  3.20881e-16
      4670.00  3.44440e-16
      4672.00  3.20571e-16
      4674.00  3.49079e-16
      4676.00  3.53378e-16
      4678.00  3.65204e-16
      4680.00  3.40721e-16
      4682.00  3.67119e-16
      4684.00  3.75131e-16
      4686.00  3.58375e-16
      4688.00  3.64197e-16
      4690.00  3.60793e-16
      4692.00  3.87914e-16
      4694.00  3.86114e-16
      4696.00  3.57077e-16
      4698.00  3.97097e-16
      4700.00  3.98357e-16
      4702.00  3.90357e-16
      4704.00  3.90806e-16
      4706.00  3.96910e-16
      4708.00  3.92359e-16
      4710.00  3.75210e-16
      4712.00  3.82874e-16
      4714.00  3.73163e-16
      4716.00  4.01505e-16
      4718.00  3.83785e-16
      4720.00  3.72745e-16
      4722.00  4.01846e-16
      4724.00  3.96819e-16
      4726.00  3.87476e-16
      4728.00  3.84272e-16
      4730.00  3.95914e-16
      4732.00  3.80536e-16
      4734.00  3.78026e-16
      4736.00  4.00910e-16
      4738.00  3.64180e-16
      4740.00  3.53668e-16
      4742.00  3.72069e-16
      4744.00  3.53937e-16
      4746.00  3.59966e-16
      4748.00  3.77865e-16
      4750.00  3.73115e-16
      4752.00  3.60543e-16
      4754.00  3.63657e-16
      4756.00  3.58261e-16
      4758.00  3.45563e-16
      4760.00  3.49271e-16
      4762.00  3.41489e-16
      4764.00  3.41415e-16
      4766.00  3.48544e-16
      4768.00  3.37565e-16
      4770.00  3.52416e-16
      4772.00  3.39135e-16
      4774.00  3.38712e-16
      4776.00  3.32173e-16
      4778.00  3.21720e-16
      4780.00  3.30568e-16
      4782.00  3.36271e-16
      4784.00  3.25010e-16
      4786.00  3.40696e-16
      4788.00  3.61957e-16
      4790.00  3.44648e-16
      4792.00  3.44196e-16
      4794.00  3.40734e-16
      4796.00  3.29055e-16
      4798.00  3.27695e-16
      4800.00  3.20534e-16
      4802.00  3.28638e-16
      4804.00  3.23056e-16
      4806.00  3.50582e-16
      4808.00  3.16723e-16
      4810.00  3.17858e-16
      4812.00  3.27056e-16
      4814.00  3.31551e-16
      4816.00  3.22421e-16
      4818.00  3.24832e-16
      4820.00  3.16437e-16
      4822.00  2.87158e-16
      4824.00  2.85498e-16
      4826.00  2.93344e-16
      4828.00  2.90314e-16
      4830.00  2.90195e-16
      4832.00  2.62399e-16
      4834.00  2.55192e-16
      4836.00  2.56610e-16
      4838.00  2.57739e-16
      4840.00  2.48833e-16
      4842.00  2.69089e-16
      4844.00  2.68819e-16
      4846.00  2.67389e-16
      4848.00  2.25760e-16
      4850.00  2.35450e-16
      4852.00  2.21360e-16
      4854.00  2.31844e-16
      4856.00  2.25213e-16
      4858.00  2.18078e-16
      4860.00  2.04218e-16
      4862.00  2.12025e-16
      4864.00  2.23591e-16
      4866.00  2.09102e-16
      4868.00  2.10185e-16
      4870.00  1.83597e-16
      4872.00  1.89205e-16
      4874.00  2.15078e-16
      4876.00  2.10856e-16
      4878.00  1.99453e-16
      4880.00  1.85824e-16
      4882.00  1.66760e-16
      4884.00  1.98817e-16
      4886.00  2.15702e-16
      4888.00  1.94842e-16
      4890.00  1.69532e-16
      4892.00  1.83093e-16
      4894.00  1.55699e-16
      4896.00  1.72780e-16
      4898.00  1.66765e-16
      4900.00  1.52202e-16
      4902.00  1.59860e-16
      4904.00  1.65502e-16
      4906.00  1.69225e-16
      4908.00  1.48356e-16
      4910.00  1.71821e-16
      4912.00  1.61789e-16
      4914.00  1.60098e-16
      4916.00  1.78521e-16
      4918.00  1.61047e-16
      4920.00  1.59236e-16
      4922.00  1.61881e-16
      4924.00  1.85092e-16
      4926.00  1.68112e-16
      4928.00  1.74967e-16
      4930.00  1.85815e-16
      4932.00  1.79715e-16
      4934.00  1.77865e-16
      4936.00  1.62763e-16
      4938.00  1.76823e-16
      4940.00  1.77730e-16
      4942.00  1.86862e-16
      4944.00  2.09066e-16
      4946.00  2.07643e-16
      4948.00  1.97235e-16
      4950.00  2.28383e-16
      4952.00  2.35791e-16
      4954.00  2.02519e-16
      4956.00  2.31954e-16
      4958.00  2.31401e-16
      4960.00  2.42777e-16
      4962.00  2.57125e-16
      4964.00  2.69097e-16
      4966.00  2.91735e-16
      4968.00  2.89718e-16
      4970.00  2.94725e-16
      4972.00  3.10579e-16
      4974.00  3.17588e-16
      4976.00  3.06556e-16
      4978.00  3.50708e-16
      4980.00  3.46779e-16
      4982.00  3.47833e-16
      4984.00  3.72023e-16
      4986.00  3.53180e-16
      4988.00  3.66821e-16
      4990.00  3.51089e-16
      4992.00  3.94649e-16
      4994.00  3.76852e-16
      4996.00  3.88248e-16
      4998.00  3.94435e-16
      5000.00  3.98455e-16
      5002.00  4.20222e-16
      5004.00  4.06538e-16
      5006.00  4.22826e-16
      5008.00  4.44517e-16
      5010.00  4.44225e-16
      5012.00  4.42015e-16
      5014.00  4.52782e-16
      5016.00  4.30890e-16
      5018.00  4.51185e-16
      5020.00  4.38666e-16
      5022.00  4.66267e-16
      5024.00  4.70891e-16
      5026.00  4.66486e-16
      5028.00  4.69179e-16
      5030.00  4.84470e-16
      5032.00  4.40006e-16
      5034.00  4.65845e-16
      5036.00  4.45609e-16
      5038.00  4.46463e-16
      5040.00  4.37681e-16
      5042.00  4.52783e-16
      5044.00  4.43589e-16
      5046.00  4.52350e-16
      5048.00  4.57091e-16
      5050.00  4.54884e-16
      5052.00  4.44331e-16
      5054.00  4.64406e-16
      5056.00  4.55391e-16
      5058.00  4.25385e-16
      5060.00  3.93676e-16
      5062.00  4.21529e-16
      5064.00  4.20834e-16
      5066.00  4.04966e-16
      5068.00  3.96143e-16
      5070.00  3.97551e-16
      5072.00  3.63846e-16
      5074.00  3.67553e-16
      5076.00  3.39566e-16
      5078.00  3.49716e-16
      5080.00  3.28767e-16
      5082.00  3.32261e-16
      5084.00  3.16900e-16
      5086.00  2.92820e-16
      5088.00  2.85399e-16
      5090.00  2.89758e-16
      5092.00  2.96933e-16
      5094.00  2.77328e-16
      5096.00  2.78835e-16
      5098.00  2.79349e-16
      5100.00  2.81973e-16
      5102.00  2.68362e-16
      5104.00  2.74278e-16
      5106.00  2.58842e-16
      5108.00  2.75556e-16
      5110.00  2.42331e-16
      5112.00  2.48319e-16
      5114.00  2.69848e-16
      5116.00  2.56555e-16
      5118.00  2.70684e-16
      5120.00  2.79351e-16
      5122.00  2.80935e-16
      5124.00  2.81004e-16
      5126.00  2.83868e-16
      5128.00  2.73310e-16
      5130.00  2.70858e-16
      5132.00  2.90935e-16
      5134.00  2.95988e-16
      5136.00  2.93155e-16
      5138.00  3.01841e-16
      5140.00  3.23367e-16
      5142.00  2.86877e-16
      5144.00  2.82892e-16
      5146.00  2.84115e-16
      5148.00  3.17474e-16
      5150.00  3.16370e-16
      5152.00  3.50803e-16
      5154.00  3.19786e-16
      5156.00  3.42340e-16
      5158.00  3.26143e-16
      5160.00  3.38167e-16
      5162.00  3.39831e-16
      5164.00  3.62753e-16
      5166.00  3.29584e-16
      5168.00  3.40235e-16
      5170.00  3.35448e-16
      5172.00  3.37694e-16
      5174.00  3.53684e-16
      5176.00  3.40003e-16
      5178.00  3.57266e-16
      5180.00  3.49228e-16
      5182.00  3.47850e-16
      5184.00  3.61582e-16
      5186.00  3.52515e-16
      5188.00  3.42314e-16
      5190.00  3.57450e-16
      5192.00  3.49621e-16
      5194.00  3.59242e-16
      5196.00  3.69658e-16
      5198.00  3.36736e-16
      5200.00  3.46305e-16
      5202.00  3.50456e-16
      5204.00  3.69513e-16
      5206.00  3.42350e-16
      5208.00  3.47739e-16
      5210.00  3.38581e-16
      5212.00  3.34911e-16
      5214.00  3.45115e-16
      5216.00  3.60871e-16
      5218.00  3.40472e-16
      5220.00  3.47384e-16
      5222.00  3.38801e-16
      5224.00  3.38538e-16
      5226.00  3.31975e-16
      5228.00  3.32168e-16
      5230.00  3.18781e-16
      5232.00  3.17589e-16
      5234.00  3.59549e-16
      5236.00  3.51622e-16
      5238.00  3.43385e-16
      5240.00  3.45346e-16
      5242.00  3.43787e-16
      5244.00  3.34674e-16
      5246.00  3.40071e-16
      5248.00  3.58986e-16
      5250.00  3.23919e-16
      5252.00  3.42049e-16
      5254.00  3.56964e-16
      5256.00  3.37323e-16
      5258.00  3.43177e-16
      5260.00  3.27835e-16
      5262.00  3.50431e-16
      5264.00  3.39020e-16
      5266.00  3.33614e-16
      5268.00  3.56670e-16
      5270.00  3.62486e-16
      5272.00  3.56817e-16
      5274.00  3.70457e-16
      5276.00  3.31030e-16
      5278.00  3.40627e-16
      5280.00  3.37268e-16
      5282.00  3.69050e-16
      5284.00  3.48524e-16
      5286.00  3.56479e-16
      5288.00  3.69754e-16
      5290.00  3.61729e-16
      5292.00  3.78275e-16
      5294.00  3.64305e-16
      5296.00  3.52071e-16
      5298.00  3.85463e-16
      5300.00  4.06837e-16
      5302.00  4.05148e-16
      5304.00  3.91616e-16
      5306.00  4.18349e-16
      5308.00  3.61224e-16
      5310.00  3.92513e-16
      5312.00  3.87879e-16
      5314.00  3.92746e-16
      5316.00  4.11194e-16
      5318.00  4.14501e-16
      5320.00  3.95470e-16
      5322.00  4.02502e-16
      5324.00  4.02435e-16
      5326.00  4.25582e-16
      5328.00  4.18662e-16
      5330.00  3.98038e-16
      5332.00  4.28701e-16
      5334.00  4.08874e-16
      5336.00  4.01283e-16
      5338.00  4.49310e-16
      5340.00  4.32088e-16
      5342.00  3.99404e-16
      5344.00  4.47506e-16
      5346.00  4.16506e-16
      5348.00  4.57020e-16
      5350.00  4.43516e-16
      5352.00  4.59093e-16
      5354.00  4.62434e-16
      5356.00  4.13203e-16
      5358.00  4.11033e-16
      5360.00  4.33494e-16
      5362.00  4.31079e-16
      5364.00  4.21930e-16
      5366.00  4.19978e-16
      5368.00  4.44931e-16
      5370.00  4.57095e-16
      5372.00  4.48583e-16
      5374.00  4.41618e-16
      5376.00  4.17567e-16
      5378.00  4.48578e-16
      5380.00  4.51824e-16
      5382.00  4.60673e-16
      5384.00  4.57632e-16
      5386.00  4.55109e-16
      5388.00  4.38402e-16
      5390.00  4.48160e-16
      5392.00  4.56257e-16
      5394.00  4.51418e-16
      5396.00  4.58523e-16
      5398.00  4.68660e-16
      5400.00  4.64431e-16
      5402.00  4.58916e-16
      5404.00  4.58399e-16
      5406.00  4.66932e-16
      5408.00  4.68183e-16
      5410.00  4.61053e-16
      5412.00  4.73449e-16
      5414.00  4.79673e-16
      5416.00  4.66123e-16
      5418.00  4.59633e-16
      5420.00  4.70435e-16
      5422.00  4.49971e-16
      5424.00  4.62056e-16
      5426.00  4.55783e-16
      5428.00  4.66242e-16
      5430.00  4.83538e-16
      5432.00  4.75271e-16
      5434.00  4.52371e-16
      5436.00  4.60671e-16
      5438.00  4.46323e-16
      5440.00  4.68884e-16
      5442.00  4.51653e-16
      5444.00  4.81050e-16
      5446.00  4.63446e-16
      5448.00  4.68002e-16
      5450.00  4.55345e-16
      5452.00  4.70801e-16
      5454.00  4.60769e-16
      5456.00  4.50488e-16
      5458.00  4.50498e-16
      5460.00  4.14540e-16
      5462.00  4.49018e-16
      5464.00  4.73697e-16
      5466.00  4.60617e-16
      5468.00  4.46005e-16
      5470.00  4.37951e-16
      5472.00  4.60324e-16
      5474.00  4.49899e-16
      5476.00  4.12080e-16
      5478.00  4.38894e-16
      5480.00  4.33913e-16
      5482.00  4.31724e-16
      5484.00  4.44471e-16
      5486.00  4.09759e-16
      5488.00  4.31253e-16
      5490.00  4.45748e-16
      5492.00  4.65088e-16
      5494.00  4.50911e-16
      5496.00  4.48702e-16
      5498.00  4.60361e-16
      5500.00  4.47532e-16
      5502.00  4.66323e-16
      5504.00  4.81484e-16
      5506.00  4.78703e-16
      5508.00  4.62143e-16
      5510.00  4.67654e-16
      5512.00  5.00103e-16
      5514.00  5.02695e-16
      5516.00  4.92916e-16
      5518.00  4.85412e-16
      5520.00  4.87550e-16
      5522.00  4.87155e-16
      5524.00  4.93052e-16
      5526.00  5.07791e-16
      5528.00  5.11197e-16
      5530.00  5.18842e-16
      5532.00  4.98860e-16
      5534.00  5.18733e-16
      5536.00  5.21215e-16
      5538.00  5.25808e-16
      5540.00  5.31525e-16
      5542.00  5.25843e-16
      5544.00  5.23977e-16
      5546.00  5.35330e-16
      5548.00  5.63170e-16
      5550.00  5.35012e-16
      5552.00  5.38818e-16
      5554.00  5.40213e-16
      5556.00  5.52514e-16
      5558.00  5.40994e-16
      5560.00  5.36430e-16
      5562.00  5.42012e-16
      5564.00  5.52176e-16
      5566.00  5.46640e-16
      5568.00  5.42781e-16
      5570.00  5.40052e-16
      5572.00  5.56531e-16
      5574.00  5.54910e-16
      5576.00  5.13396e-16
      5578.00  5.43125e-16
      5580.00  5.22282e-16
      5582.00  5.14573e-16
      5584.00  5.15630e-16
      5586.00  5.03922e-16
      5588.00  5.17779e-16
      5590.00  5.08526e-16
      5592.00  5.09798e-16
      5594.00  4.77736e-16
      5596.00  4.95141e-16
      5598.00  4.81597e-16
      5600.00  4.52349e-16
      5602.00  4.37328e-16
      5604.00  4.41022e-16
      5606.00  4.37737e-16
      5608.00  4.38076e-16
      5610.00  4.18983e-16
      5612.00  4.22970e-16
      5614.00  4.07723e-16
      5616.00  3.89724e-16
      5618.00  3.94469e-16
      5620.00  4.00450e-16
      5622.00  4.00945e-16
      5624.00  3.75169e-16
      5626.00  3.84050e-16
      5628.00  3.84920e-16
      5630.00  3.54709e-16
      5632.00  3.64681e-16
      5634.00  3.68375e-16
      5636.00  3.43389e-16
      5638.00  3.47523e-16
      5640.00  3.48697e-16
      5642.00  3.56395e-16
      5644.00  3.53628e-16
      5646.00  3.47343e-16
      5648.00  3.28395e-16
      5650.00  3.20427e-16
      5652.00  3.31932e-16
      5654.00  3.29136e-16
      5656.00  3.08652e-16
      5658.00  3.13169e-16
      5660.00  3.07977e-16
      5662.00  3.10207e-16
      5664.00  3.10998e-16
      5666.00  2.91179e-16
      5668.00  2.94463e-16
      5670.00  2.93933e-16
      5672.00  2.63323e-16
      5674.00  2.57364e-16
      5676.00  2.47207e-16
      5678.00  2.40492e-16
      5680.00  2.61787e-16
      5682.00  2.55403e-16
      5684.00  2.39466e-16
      5686.00  2.47016e-16
      5688.00  2.40344e-16
      5690.00  2.22228e-16
      5692.00  2.27381e-16
      5694.00  2.03029e-16
      5696.00  1.98684e-16
      5698.00  2.04427e-16
      5700.00  1.84474e-16
      5702.00  1.80239e-16
      5704.00  1.65509e-16
      5706.00  1.58940e-16
      5708.00  1.62672e-16
      5710.00  1.51576e-16
      5712.00  1.54687e-16
      5714.00  1.40066e-16
      5716.00  1.49833e-16
      5718.00  1.44270e-16
      5720.00  1.35951e-16
      5722.00  1.46058e-16
      5724.00  1.36846e-16
      5726.00  1.27471e-16
      5728.00  1.21045e-16
      5730.00  1.26008e-16
      5732.00  1.31174e-16
      5734.00  1.31430e-16
      5736.00  1.20318e-16
      5738.00  1.09055e-16
      5740.00  1.24710e-16
      5742.00  1.35085e-16
      5744.00  1.31213e-16
      5746.00  1.24236e-16
      5748.00  1.28303e-16
      5750.00  1.23327e-16
      5752.00  1.19869e-16
      5754.00  1.21762e-16
      5756.00  1.33841e-16
      5758.00  1.34153e-16
      5760.00  1.43108e-16
      5762.00  1.38777e-16
      5764.00  1.30595e-16
      5766.00  1.34430e-16
      5768.00  1.35949e-16
      5770.00  1.63233e-16
      5772.00  1.59795e-16
      5774.00  1.47721e-16
      5776.00  1.56883e-16
      5778.00  1.62876e-16
      5780.00  1.69789e-16
      5782.00  1.69211e-16
      5784.00  1.72358e-16
      5786.00  1.86552e-16
      5788.00  1.87607e-16
      5790.00  2.06282e-16
      5792.00  2.20984e-16
      5794.00  2.07987e-16
      5796.00  2.16212e-16
      5798.00  2.30595e-16
      5800.00  2.53869e-16
      5802.00  2.58978e-16
      5804.00  2.80185e-16
      5806.00  2.72629e-16
      5808.00  2.77698e-16
      5810.00  3.12628e-16
      5812.00  3.20722e-16
      5814.00  3.23359e-16
      5816.00  3.31810e-16
      5818.00  3.47531e-16
      5820.00  3.75841e-16
      5822.00  3.82812e-16
      5824.00  3.95763e-16
      5826.00  4.12831e-16
      5828.00  4.51216e-16
      5830.00  4.54974e-16
      5832.00  4.73174e-16
      5834.00  4.73594e-16
      5836.00  4.86896e-16
      5838.00  5.13099e-16
      5840.00  5.06524e-16
      5842.00  5.36972e-16
      5844.00  5.71145e-16
      5846.00  5.59760e-16
      5848.00  5.60151e-16
      5850.00  5.63788e-16
      5852.00  5.73974e-16
      5854.00  5.97895e-16
      5856.00  5.94218e-16
      5858.00  6.01812e-16
      5860.00  6.13865e-16
      5862.00  6.23755e-16
      5864.00  6.24070e-16
      5866.00  6.25826e-16
      5868.00  6.27537e-16
      5870.00  6.45909e-16
      5872.00  6.32456e-16
      5874.00  6.34232e-16
      5876.00  6.37177e-16
      5878.00  6.48812e-16
      5880.00  6.36919e-16
      5882.00  6.37247e-16
      5884.00  6.28799e-16
      5886.00  5.95057e-16
      5888.00  6.18968e-16
      5890.00  6.48438e-16
      5892.00  5.98458e-16
      5894.00  5.96248e-16
      5896.00  6.14450e-16
      5898.00  6.49798e-16
      5900.00  6.97685e-16
      5902.00  6.89479e-16
      5904.00  6.66899e-16
      5906.00  6.96855e-16
      5908.00  7.13039e-16
      5910.00  6.88519e-16
      5912.00  7.00027e-16
      5914.00  6.89283e-16
      5916.00  6.60856e-16
      5918.00  6.61945e-16
      5920.00  6.58388e-16
      5922.00  6.65893e-16
      5924.00  6.72888e-16
      5926.00  6.73962e-16
      5928.00  6.93512e-16
      5930.00  7.02466e-16
      5932.00  6.82969e-16
      5934.00  6.69475e-16
      5936.00  6.85809e-16
      5938.00  6.74001e-16
      5940.00  6.55543e-16
      5942.00  6.43894e-16
      5944.00  6.66819e-16
      5946.00  6.77435e-16
      5948.00  6.77198e-16
      5950.00  6.74805e-16
      5952.00  6.84085e-16
      5954.00  6.86886e-16
      5956.00  6.75282e-16
      5958.00  6.75358e-16
      5960.00  6.65773e-16
      5962.00  6.52150e-16
      5964.00  6.56255e-16
      5966.00  6.44821e-16
      5968.00  6.30920e-16
      5970.00  6.37360e-16
      5972.00  6.46780e-16
      5974.00  6.52305e-16
      5976.00  6.35337e-16
      5978.00  6.32584e-16
      5980.00  6.15200e-16
      5982.00  6.31343e-16
      5984.00  6.20516e-16
      5986.00  6.03205e-16
      5988.00  6.10685e-16
      5990.00  5.88220e-16
      5992.00  5.98087e-16
      5994.00  5.91506e-16
      5996.00  6.03094e-16
      5998.00  5.87964e-16
      6000.00  5.86986e-16
      6002.00  5.85355e-16
      6004.00  5.88127e-16
      6006.00  5.80691e-16
      6008.00  5.73838e-16
      6010.00  5.72586e-16
      6012.00  5.58664e-16
      6014.00  5.52935e-16
      6016.00  5.45302e-16
      6018.00  5.55345e-16
      6020.00  5.32301e-16
      6022.00  5.50235e-16
      6024.00  5.44487e-16
      6026.00  5.27984e-16
      6028.00  5.14031e-16
      6030.00  5.20925e-16
      6032.00  5.16110e-16
      6034.00  5.15406e-16
      6036.00  5.16515e-16
      6038.00  5.15656e-16
      6040.00  4.92393e-16
      6042.00  5.06360e-16
      6044.00  5.04093e-16
      6046.00  4.96030e-16
      6048.00  5.12457e-16
      6050.00  5.17843e-16
      6052.00  5.05603e-16
      6054.00  4.90940e-16
      6056.00  4.95701e-16
      6058.00  5.02827e-16
      6060.00  4.92133e-16
      6062.00  4.81200e-16
      6064.00  4.72284e-16
      6066.00  4.84288e-16
      6068.00  4.87708e-16
      6070.00  4.76748e-16
      6072.00  4.68957e-16
      6074.00  4.82276e-16
      6076.00  4.75093e-16
      6078.00  4.62913e-16
      6080.00  4.81158e-16
      6082.00  4.62412e-16
      6084.00  4.54477e-16
      6086.00  4.67758e-16
      6088.00  4.53564e-16
      6090.00  4.57233e-16
      6092.00  4.41817e-16
      6094.00  4.46134e-16
      6096.00  4.48119e-16
      6098.00  4.49036e-16
      6100.00  4.47607e-16
      6102.00  4.53862e-16
      6104.00  4.51687e-16
      6106.00  4.56830e-16
      6108.00  4.53889e-16
      6110.00  4.38338e-16
      6112.00  4.41304e-16
      6114.00  4.29950e-16
      6116.00  4.42727e-16
      6118.00  4.22689e-16
      6120.00  4.22187e-16
      6122.00  4.39517e-16
      6124.00  4.46727e-16
      6126.00  4.44283e-16
      6128.00  4.40175e-16
      6130.00  4.24139e-16
      6132.00  4.27893e-16
      6134.00  4.37938e-16
      6136.00  4.38598e-16
      6138.00  4.43758e-16
      6140.00  4.32858e-16
      6142.00  4.41757e-16
      6144.00  4.25322e-16
      6146.00  4.30200e-16
      6148.00  4.21658e-16
      6150.00  4.38654e-16
      6152.00  4.46058e-16
      6154.00  4.37959e-16
      6156.00  4.41771e-16
      6158.00  4.41333e-16
      6160.00  4.21707e-16
      6162.00  4.17330e-16
      6164.00  4.19845e-16
      6166.00  4.24747e-16
      6168.00  4.38220e-16
      6170.00  4.26050e-16
      6172.00  4.27658e-16
      6174.00  4.19537e-16
      6176.00  4.24745e-16
      6178.00  4.27170e-16
      6180.00  4.06144e-16
      6182.00  4.15885e-16
      6184.00  4.20128e-16
      6186.00  4.11336e-16
      6188.00  4.23038e-16
      6190.00  4.25310e-16
      6192.00  4.15347e-16
      6194.00  4.11750e-16
      6196.00  4.06162e-16
      6198.00  4.11026e-16
      6200.00  4.18264e-16
      6202.00  4.15986e-16
      6204.00  4.18326e-16
      6206.00  4.25084e-16
      6208.00  4.15912e-16
      6210.00  4.31115e-16
      6212.00  4.14212e-16
      6214.00  4.15577e-16
      6216.00  4.33386e-16
      6218.00  4.34616e-16
      6220.00  4.23467e-16
      6222.00  4.05424e-16
      6224.00  4.16501e-16
      6226.00  4.17312e-16
      6228.00  4.24141e-16
      6230.00  4.23954e-16
      6232.00  4.12565e-16
      6234.00  4.23759e-16
      6236.00  4.29158e-16
      6238.00  4.11603e-16
      6240.00  4.09624e-16
      6242.00  4.27547e-16
      6244.00  4.36169e-16
      6246.00  4.15595e-16
      6248.00  4.30599e-16
      6250.00  4.38480e-16
      6252.00  4.37826e-16
      6254.00  4.34118e-16
      6256.00  4.36361e-16
      6258.00  4.47578e-16
      6260.00  4.38464e-16
      6262.00  4.50179e-16
      6264.00  4.55956e-16
      6266.00  4.53389e-16
      6268.00  4.48586e-16
      6270.00  4.57880e-16
      6272.00  4.53222e-16
      6274.00  4.36631e-16
      6276.00  4.45207e-16
      6278.00  4.66087e-16
      6280.00  4.75765e-16
      6282.00  4.61915e-16
      6284.00  4.63860e-16
      6286.00  4.52591e-16
      6288.00  4.57402e-16
      6290.00  4.77119e-16
      6292.00  4.76003e-16
      6294.00  4.62468e-16
      6296.00  4.59982e-16
      6298.00  4.67465e-16
      6300.00  4.58000e-16
      6302.00  4.70350e-16
      6304.00  4.81160e-16
      6306.00  4.73061e-16
      6308.00  4.66777e-16
      6310.00  4.68412e-16
      6312.00  4.51461e-16
      6314.00  4.61420e-16
      6316.00  4.71490e-16
      6318.00  4.67286e-16
      6320.00  4.67920e-16
      6322.00  4.74489e-16
      6324.00  4.70888e-16
      6326.00  4.72255e-16
      6328.00  4.75488e-16
      6330.00  4.72456e-16
      6332.00  4.65752e-16
      6334.00  4.60626e-16
      6336.00  4.50844e-16
      6338.00  4.53294e-16
      6340.00  4.55207e-16
      6342.00  4.60143e-16
      6344.00  4.52404e-16
      6346.00  4.55598e-16
      6348.00  4.47489e-16
      6350.00  4.36538e-16
      6352.00  4.51227e-16
      6354.00  4.43549e-16
      6356.00  4.49412e-16
      6358.00  4.47711e-16
      6360.00  4.45781e-16
      6362.00  4.36079e-16
      6364.00  4.26195e-16
      6366.00  4.24435e-16
      6368.00  4.35988e-16
      6370.00  4.32523e-16
      6372.00  4.19361e-16
      6374.00  4.29406e-16
      6376.00  4.36609e-16
      6378.00  4.36101e-16
      6380.00  4.41343e-16
      6382.00  4.32704e-16
      6384.00  4.28785e-16
      6386.00  4.40897e-16
      6388.00  4.28239e-16
      6390.00  4.24997e-16
      6392.00  4.21663e-16
      6394.00  4.29257e-16
      6396.00  4.24596e-16
      6398.00  4.15537e-16
      6400.00  4.18340e-16
      6402.00  4.27472e-16
      6404.00  4.29362e-16
      6406.00  4.25128e-16
      6408.00  4.35366e-16
      6410.00  4.38579e-16
      6412.00  4.33530e-16
      6414.00  4.25901e-16
      6416.00  4.36847e-16
      6418.00  4.36299e-16
      6420.00  4.29258e-16
      6422.00  4.17499e-16
      6424.00  4.20106e-16
      6426.00  4.29668e-16
      6428.00  4.38197e-16
      6430.00  4.36977e-16
      6432.00  4.27312e-16
      6434.00  4.30061e-16
      6436.00  4.25516e-16
      6438.00  4.19578e-16
      6440.00  4.22193e-16
      6442.00  4.29627e-16
      6444.00  4.19586e-16
      6446.00  4.20516e-16
      6448.00  4.23564e-16
      6450.00  4.14019e-16
      6452.00  4.23825e-16
      6454.00  4.28861e-16
      6456.00  4.30617e-16
      6458.00  4.29775e-16
      6460.00  4.31320e-16
      6462.00  4.28729e-16
      6464.00  4.23538e-16
      6466.00  4.28570e-16
      6468.00  4.24265e-16
      6470.00  4.32829e-16
      6472.00  4.32409e-16
      6474.00  4.24050e-16
      6476.00  4.39622e-16
      6478.00  4.55736e-16
      6480.00  4.56159e-16
      6482.00  4.51027e-16
      6484.00  4.54434e-16
      6486.00  4.47302e-16
      6488.00  4.46079e-16
      6490.00  4.27607e-16
      6492.00  4.22566e-16
      6494.00  4.37089e-16
      6496.00  4.42034e-16
      6498.00  4.37902e-16
      6500.00  4.30200e-16
      6502.00  4.33353e-16
      6504.00  4.28845e-16
      6506.00  4.25221e-16
      6508.00  4.20641e-16
      6510.00  4.30484e-16
      6512.00  4.05559e-16
      6514.00  3.92374e-16
      6516.00  3.96659e-16
      6518.00  3.85882e-16
      6520.00  4.01811e-16
      6522.00  4.01134e-16
      6524.00  4.07916e-16
      6526.00  4.05106e-16
      6528.00  3.90097e-16
      6530.00  3.87038e-16
      6532.00  3.89878e-16
      6534.00  3.79391e-16
      6536.00  3.66334e-16
      6538.00  3.50877e-16
      6540.00  3.43590e-16
      6542.00  3.37203e-16
      6544.00  3.27719e-16
      6546.00  3.20975e-16
      6548.00  3.10929e-16
      6550.00  3.02371e-16
      6552.00  2.88743e-16
      6554.00  2.83705e-16
      6556.00  2.92197e-16
      6558.00  2.67313e-16
      6560.00  2.59048e-16
      6562.00  2.58258e-16
      6564.00  2.57636e-16
      6566.00  2.59089e-16
      6568.00  2.50558e-16
      6570.00  2.51801e-16
      6572.00  2.59480e-16
      6574.00  2.57186e-16
      6576.00  2.58757e-16
      6578.00  2.58845e-16
      6580.00  2.57810e-16
      6582.00  2.58500e-16
      6584.00  2.68962e-16
      6586.00  2.74226e-16
      6588.00  2.85370e-16
      6590.00  2.90078e-16
      6592.00  3.06456e-16
      6594.00  3.25839e-16
      6596.00  3.15033e-16
      6598.00  3.15545e-16
      6600.00  3.28587e-16
      6602.00  3.39343e-16
      6604.00  3.49164e-16
      6606.00  3.65949e-16
      6608.00  3.58927e-16
      6610.00  3.57778e-16
      6612.00  3.67686e-16
      6614.00  3.85442e-16
      6616.00  3.85079e-16
      6618.00  3.84662e-16
      6620.00  4.03474e-16
      6622.00  4.12055e-16
      6624.00  4.16884e-16
      6626.00  4.29966e-16
      6628.00  4.33198e-16
      6630.00  4.45632e-16
      6632.00  4.56395e-16
      6634.00  4.43123e-16
      6636.00  4.50554e-16
      6638.00  4.63238e-16
      6640.00  4.60187e-16
      6642.00  4.65936e-16
      6644.00  4.83748e-16
      6646.00  4.83125e-16
      6648.00  4.85991e-16
      6650.00  4.90403e-16
      6652.00  4.92849e-16
      6654.00  4.90700e-16
      6656.00  4.92889e-16
      6658.00  4.81740e-16
      6660.00  4.91052e-16
      6662.00  4.98335e-16
      6664.00  5.05124e-16
      6666.00  5.12103e-16
      6668.00  5.08311e-16
      6670.00  5.07779e-16
      6672.00  5.04899e-16
      6674.00  5.06661e-16
      6676.00  5.05211e-16
      6678.00  5.05227e-16
      6680.00  5.04474e-16
      6682.00  5.09003e-16
      6684.00  5.12450e-16
      6686.00  5.05212e-16
      6688.00  5.05067e-16
      6690.00  5.00005e-16
      6692.00  5.03422e-16
      6694.00  4.93982e-16
      6696.00  4.93189e-16
      6698.00  5.02035e-16
      6700.00  5.03577e-16
      6702.00  5.00594e-16
      6704.00  4.84859e-16
      6706.00  4.82804e-16
      6708.00  4.79120e-16
      6710.00  4.72027e-16
      6712.00  4.76401e-16
      6714.00  4.76837e-16
      6716.00  4.73928e-16
      6718.00  4.84578e-16
      6720.00  4.78313e-16
      6722.00  4.84995e-16
      6724.00  4.81489e-16
      6726.00  4.74384e-16
      6728.00  4.61054e-16
      6730.00  4.66812e-16
      6732.00  4.64631e-16
      6734.00  4.63732e-16
      6736.00  4.66903e-16
      6738.00  4.66096e-16
      6740.00  4.72410e-16
      6742.00  4.59839e-16
      6744.00  4.46762e-16
      6746.00  4.57907e-16
      6748.00  4.77511e-16
      6750.00  4.67938e-16
      6752.00  4.67558e-16
      6754.00  4.62433e-16
      6756.00  4.62148e-16
      6758.00  4.69646e-16
      6760.00  4.58471e-16
      6762.00  4.57561e-16
      6764.00  4.56034e-16
      6766.00  4.48801e-16
      6768.00  4.54510e-16
      6770.00  4.46806e-16
      6772.00  4.34750e-16
      6774.00  4.37347e-16
      6776.00  4.46948e-16
      6778.00  4.42660e-16
      6780.00  4.37041e-16
      6782.00  4.34515e-16
      6784.00  4.27736e-16
      6786.00  4.39120e-16
      6788.00  4.35820e-16
      6790.00  4.29069e-16
      6792.00  4.23768e-16
      6794.00  4.24538e-16
      6796.00  4.31417e-16
      6798.00  4.30191e-16
      6800.00  4.22738e-16
      6802.00  4.24426e-16
      6804.00  4.28676e-16
      6806.00  4.33463e-16
      6808.00  4.23957e-16
      6810.00  4.19027e-16
      6812.00  4.15890e-16
      6814.00  4.06245e-16
      6816.00  4.05952e-16
      6818.00  4.05877e-16
      6820.00  4.11494e-16
      6822.00  4.07318e-16
      6824.00  3.93107e-16
      6826.00  3.92723e-16
      6828.00  3.88049e-16
      6830.00  3.79072e-16
      6832.00  3.94007e-16
      6834.00  3.87079e-16
      6836.00  3.77212e-16
      6838.00  3.73215e-16
      6840.00  3.95760e-16
      6842.00  3.91801e-16
      6844.00  3.87620e-16
      6846.00  3.86307e-16
      6848.00  3.83268e-16
      6850.00  3.99257e-16
      6852.00  3.97216e-16
      6854.00  3.78953e-16
      6856.00  3.77645e-16
      6858.00  3.85237e-16
      6860.00  3.96617e-16
      6862.00  3.96445e-16
      6864.00  3.84479e-16
      6866.00  3.73299e-16
      6868.00  3.74874e-16
      6870.00  3.81872e-16
      6872.00  3.71904e-16
      6874.00  3.77587e-16
      6876.00  3.73445e-16
      6878.00  3.79968e-16
      6880.00  3.72383e-16
      6882.00  3.59212e-16
      6884.00  3.60482e-16
      6886.00  3.58525e-16
      6888.00  3.65897e-16
      6890.00  3.62891e-16
      6892.00  3.52125e-16
      6894.00  3.53261e-16
      6896.00  3.54227e-16
      6898.00  3.58094e-16
      6900.00  3.41909e-16
      6902.00  3.43174e-16
      6904.00  3.48574e-16
      6906.00  3.37679e-16
      6908.00  3.44664e-16
      6910.00  3.36126e-16
      6912.00  3.24530e-16
      6914.00  3.16921e-16
      6916.00  3.07520e-16
      6918.00  2.96043e-16
      6920.00  3.00856e-16
      6922.00  3.00330e-16
      6924.00  2.89885e-16
      6926.00  2.86169e-16
      6928.00  2.68272e-16
      6930.00  2.69591e-16
      6932.00  2.62422e-16
      6934.00  2.54477e-16
      6936.00  2.48350e-16
      6938.00  2.53867e-16
      6940.00  2.52851e-16
      6942.00  2.53664e-16
      6944.00  2.48842e-16
      6946.00  2.47011e-16
      6948.00  2.57026e-16
      6950.00  2.50244e-16
      6952.00  2.50361e-16
      6954.00  2.71160e-16
      6956.00  2.73020e-16
      6958.00  2.83498e-16
      6960.00  2.86258e-16
      6962.00  3.16520e-16
      6964.00  3.07329e-16
      6966.00  3.13074e-16
      6968.00  3.30622e-16
      6970.00  3.52155e-16
      6972.00  3.54190e-16
      6974.00  3.75692e-16
      6976.00  3.91136e-16
      6978.00  4.18515e-16
      6980.00  4.35498e-16
      6982.00  4.40404e-16
      6984.00  4.48115e-16
      6986.00  4.75711e-16
      6988.00  4.90999e-16
      6990.00  5.02029e-16
      6992.00  5.11674e-16
      6994.00  5.28372e-16
      6996.00  5.27936e-16
      6998.00  5.39949e-16
      7000.00  5.48865e-16
      7002.00  5.62646e-16
      7004.00  5.65402e-16
      7006.00  5.84130e-16
      7008.00  5.86101e-16
      7010.00  5.89992e-16
      7012.00  6.08049e-16
      7014.00  6.08805e-16
      7016.00  6.10634e-16
      7018.00  6.23957e-16
      7020.00  6.23877e-16
      7022.00  6.25291e-16
      7024.00  6.30724e-16
      7026.00  6.30706e-16
      7028.00  6.56238e-16
      7030.00  6.52027e-16
      7032.00  6.50335e-16
      7034.00  6.32151e-16
      7036.00  6.34217e-16
      7038.00  6.45661e-16
      7040.00  6.49676e-16
      7042.00  6.56882e-16
      7044.00  6.46407e-16
      7046.00  6.57046e-16
      7048.00  6.60718e-16
      7050.00  6.61961e-16
      7052.00  6.60970e-16
      7054.00  6.70324e-16
      7056.00  6.68335e-16
      7058.00  6.88927e-16
      7060.00  7.11466e-16
      7062.00  7.20700e-16
      7064.00  6.98499e-16
      7066.00  6.74963e-16
      7068.00  6.62518e-16
      7070.00  6.70171e-16
      7072.00  6.51273e-16
      7074.00  6.65672e-16
      7076.00  6.77994e-16
      7078.00  6.56815e-16
      7080.00  6.69315e-16
      7082.00  6.70580e-16
      7084.00  6.55690e-16
      7086.00  6.42559e-16
      7088.00  6.54692e-16
      7090.00  6.41623e-16
      7092.00  6.39448e-16
      7094.00  6.34077e-16
      7096.00  6.34384e-16
      7098.00  6.23179e-16
      7100.00  6.17580e-16
      7102.00  6.12674e-16
      7104.00  6.25245e-16
      7106.00  6.08165e-16
      7108.00  6.08636e-16
      7110.00  6.05131e-16
      7112.00  5.90001e-16
      7114.00  5.80835e-16
      7116.00  5.80294e-16
      7118.00  5.96219e-16
      7120.00  6.09663e-16
      7122.00  5.90115e-16
      7124.00  5.90096e-16
      7126.00  5.79435e-16
      7128.00  5.87861e-16
      7130.00  5.80139e-16
      7132.00  5.71455e-16
      7134.00  5.62580e-16
      7136.00  5.54826e-16
      7138.00  5.55971e-16
      7140.00  5.61601e-16
      7142.00  5.58638e-16
      7144.00  5.51026e-16
      7146.00  5.29038e-16
      7148.00  5.34562e-16
      7150.00  5.25383e-16
      7152.00  5.22822e-16
      7154.00  5.16865e-16
      7156.00  5.16535e-16
      7158.00  5.12774e-16
      7160.00  5.12295e-16
      7162.00  5.01946e-16
      7164.00  4.83699e-16
      7166.00  4.75318e-16
      7168.00  4.77896e-16
      7170.00  4.75356e-16
      7172.00  4.88035e-16
      7174.00  4.90048e-16
      7176.00  4.85148e-16
      7178.00  4.82492e-16
      7180.00  4.71278e-16
      7182.00  4.71407e-16
      7184.00  4.85323e-16
      7186.00  4.97244e-16
      7188.00  4.85540e-16
      7190.00  4.82489e-16
      7192.00  5.00026e-16
      7194.00  4.79935e-16
      7196.00  4.88232e-16
      7198.00  4.88837e-16
      7200.00  5.00696e-16
      7202.00  5.04387e-16
      7204.00  5.30527e-16
      7206.00  5.14253e-16
      7208.00  5.25499e-16
      7210.00  5.25627e-16
      7212.00  5.36956e-16
      7214.00  5.38361e-16
      7216.00  5.39102e-16
      7218.00  5.42575e-16
      7220.00  5.27574e-16
      7222.00  5.40715e-16
      7224.00  5.40710e-16
      7226.00  5.49790e-16
      7228.00  5.54383e-16
      7230.00  5.58688e-16
      7232.00  5.63647e-16
      7234.00  5.72307e-16
      7236.00  5.61945e-16
      7238.00  5.65214e-16
      7240.00  5.61253e-16
      7242.00  5.84311e-16
      7244.00  5.84996e-16
      7246.00  5.95697e-16
      7248.00  5.84073e-16
      7250.00  5.76068e-16
      7252.00  6.06780e-16
      7254.00  5.85420e-16
      7256.00  5.81898e-16
      7258.00  6.01489e-16
      7260.00  5.97714e-16
      7262.00  5.97909e-16
      7264.00  6.15567e-16
      7266.00  6.19643e-16
      7268.00  6.28398e-16
      7270.00  6.21683e-16
      7272.00  6.33127e-16
      7274.00  6.28811e-16
      7276.00  6.59327e-16
      7278.00  6.89679e-16
      7280.00  6.76534e-16
      7282.00  6.44895e-16
      7284.00  6.23416e-16
      7286.00  6.47653e-16
      7288.00  6.44783e-16
      7290.00  6.39291e-16
      7292.00  6.41039e-16
      7294.00  6.41279e-16
      7296.00  6.36319e-16
      7298.00  6.35634e-16
      7300.00  6.40444e-16
      7302.00  6.56899e-16
      7304.00  6.54319e-16
      7306.00  6.41724e-16
      7308.00  6.40715e-16
      7310.00  6.41239e-16
      7312.00  6.39561e-16
      7314.00  6.36728e-16
      7316.00  6.53294e-16
      7318.00  6.46718e-16
      7320.00  6.51039e-16
      7322.00  6.53629e-16
      7324.00  6.48616e-16
      7326.00  6.53663e-16
      7328.00  6.53807e-16
      7330.00  6.68315e-16
      7332.00  6.68429e-16
      7334.00  6.67974e-16
      7336.00  6.60868e-16
      7338.00  6.54074e-16
      7340.00  6.57660e-16
      7342.00  6.72047e-16
      7344.00  6.64698e-16
      7346.00  6.51854e-16
      7348.00  6.43279e-16
      7350.00  6.47658e-16
      7352.00  6.44003e-16
      7354.00  6.41559e-16
      7356.00  6.44710e-16
      7358.00  6.37174e-16
      7360.00  6.39066e-16
      7362.00  6.34797e-16
      7364.00  6.29593e-16
      7366.00  6.29586e-16
      7368.00  6.21856e-16
      7370.00  6.16092e-16
      7372.00  6.21187e-16
      7374.00  6.18091e-16
      7376.00  6.04010e-16
      7378.00  5.98451e-16
      7380.00  5.95329e-16
      7382.00  5.87726e-16
      7384.00  5.80371e-16
      7386.00  5.73310e-16
      7388.00  5.63423e-16
      7390.00  5.70401e-16
      7392.00  5.64304e-16
      7394.00  5.52163e-16
      7396.00  5.56690e-16
      7398.00  5.49404e-16
      7400.00  5.40713e-16
      7402.00  5.31342e-16
      7404.00  5.54654e-16
      7406.00  5.35654e-16
      7408.00  5.20377e-16
      7410.00  5.08947e-16
      7412.00  5.04240e-16
      7414.00  5.07119e-16
      7416.00  5.08370e-16
      7418.00  5.02862e-16
      7420.00  4.93749e-16
      7422.00  4.84571e-16
      7424.00  4.87064e-16
      7426.00  4.97376e-16
      7428.00  4.62826e-16
      7430.00  4.93791e-16
      7432.00  4.99207e-16
      7434.00  4.82752e-16
      7436.00  4.86815e-16
      7438.00  4.99221e-16
      7440.00  4.73907e-16
      7442.00  4.77020e-16
      7444.00  4.72569e-16
      7446.00  4.77282e-16
      7448.00  4.65264e-16
      7450.00  4.64165e-16
      7452.00  4.51343e-16
      7454.00  4.46024e-16
      7456.00  4.56744e-16
      7458.00  4.40380e-16
      7460.00  4.49777e-16
      7462.00  4.55408e-16
      7464.00  4.33576e-16
      7466.00  4.50786e-16
      7468.00  4.40409e-16
      7470.00  4.39985e-16
      7472.00  4.35274e-16
      7474.00  4.35850e-16
      7476.00  4.41897e-16
      7478.00  4.32655e-16
      7480.00  4.34673e-16
      7482.00  4.33928e-16
      7484.00  4.39319e-16
      7486.00  4.40826e-16
      7488.00  4.29391e-16
      7490.00  4.32355e-16
      7492.00  4.33295e-16
      7494.00  4.41089e-16
      7496.00  4.33416e-16
      7498.00  4.25621e-16
      7500.00  4.21805e-16
      7502.00  4.21913e-16
      7504.00  4.16758e-16
      7506.00  4.24882e-16
      7508.00  4.23516e-16
      7510.00  4.19551e-16
      7512.00  4.17612e-16
      7514.00  4.23257e-16
      7516.00  4.10223e-16
      7518.00  4.14405e-16
      7520.00  4.18619e-16
      7522.00  4.17303e-16
      7524.00  3.93947e-16
      7526.00  4.05538e-16
      7528.00  3.99480e-16
      7530.00  4.03543e-16
      7532.00  4.04482e-16
      7534.00  3.95233e-16
      7536.00  4.00882e-16
      7538.00  3.94405e-16
      7540.00  3.91910e-16
      7542.00  3.86944e-16
      7544.00  3.86265e-16
      7546.00  3.87866e-16
      7548.00  3.95122e-16
      7550.00  3.87184e-16
      7552.00  3.75444e-16
      7554.00  3.86595e-16
      7556.00  3.83135e-16
      7558.00  3.75241e-16
      7560.00  3.80127e-16
      7562.00  3.86626e-16
      7564.00  3.72299e-16
      7566.00  3.66583e-16
      7568.00  3.74781e-16
      7570.00  3.69233e-16
      7572.00  3.79837e-16
      7574.00  3.86496e-16
      7576.00  3.64175e-16
      7578.00  3.65073e-16
      7580.00  3.55984e-16
      7582.00  3.52347e-16
      7584.00  3.56574e-16
      7586.00  3.54073e-16
      7588.00  3.58411e-16
      7590.00  3.44030e-16
      7592.00  3.16600e-16
      7594.00  3.25087e-16
      7596.00  3.30160e-16
      7598.00  3.19668e-16
      7600.00  3.00346e-16
      7602.00  3.01840e-16
      7604.00  2.89564e-16
      7606.00  2.86097e-16
      7608.00  2.90310e-16
      7610.00  3.17690e-16
      7612.00  3.23034e-16
      7614.00  3.51594e-16
      7616.00  3.51712e-16
      7618.00  3.39415e-16
      7620.00  3.43772e-16
      7622.00  3.31045e-16
      7624.00  3.18547e-16
      7626.00  3.19558e-16
      7628.00  3.18912e-16
      7630.00  3.45160e-16
      7632.00  3.44962e-16
      7634.00  3.40239e-16
      7636.00  3.32848e-16
      7638.00  3.40791e-16
      7640.00  3.30037e-16
      7642.00  3.36467e-16
      7644.00  3.47568e-16
      7646.00  3.39753e-16
      7648.00  3.49559e-16
      7650.00  3.50952e-16
      7652.00  3.52252e-16
      7654.00  3.55091e-16
      7656.00  3.44021e-16
      7658.00  3.49443e-16
      7660.00  3.49067e-16
      7662.00  3.55669e-16
      7664.00  3.63278e-16
      7666.00  3.60210e-16
      7668.00  3.52484e-16
      7670.00  3.56659e-16
      7672.00  3.63121e-16
      7674.00  3.56987e-16
      7676.00  3.63448e-16
      7678.00  3.58974e-16
      7680.00  3.50897e-16
      7682.00  3.52352e-16
      7684.00  3.50357e-16
      7686.00  3.44468e-16
      7688.00  3.35646e-16
      7690.00  3.30174e-16
      7692.00  3.34648e-16
      7694.00  3.53212e-16
      7696.00  3.46318e-16
      7698.00  3.33134e-16
      7700.00  3.37956e-16
      7702.00  3.40977e-16
      7704.00  3.44469e-16
      7706.00  3.31108e-16
      7708.00  3.38082e-16
      7710.00  3.43106e-16
      7712.00  3.47437e-16
      7714.00  3.57364e-16
      7716.00  3.57327e-16
      7718.00  3.65844e-16
      7720.00  3.62848e-16
      7722.00  3.54898e-16
      7724.00  3.72109e-16
      7726.00  3.80415e-16
      7728.00  3.73256e-16
      7730.00  3.78055e-16
      7732.00  3.75737e-16
      7734.00  3.93896e-16
      7736.00  4.00394e-16
      7738.00  3.82060e-16
      7740.00  3.92551e-16
      7742.00  4.05584e-16
      7744.00  4.03433e-16
      7746.00  4.14409e-16
      7748.00  4.11644e-16
      7750.00  4.11307e-16
      7752.00  4.21652e-16
      7754.00  4.25533e-16
      7756.00  4.33950e-16
      7758.00  4.35904e-16
      7760.00  4.34792e-16
      7762.00  4.30407e-16
      7764.00  4.25662e-16
      7766.00  4.49913e-16
      7768.00  4.59291e-16
      7770.00  4.55181e-16
      7772.00  4.68612e-16
      7774.00  4.74599e-16
      7776.00  4.65176e-16
      7778.00  4.57488e-16
      7780.00  4.66828e-16
      7782.00  4.56667e-16
      7784.00  4.73097e-16
      7786.00  4.70500e-16
      7788.00  4.65008e-16
      7790.00  4.60420e-16
      7792.00  4.70253e-16
      7794.00  4.88679e-16
      7796.00  4.93882e-16
      7798.00  4.87619e-16
      7800.00  4.84984e-16
      7802.00  4.69433e-16
      7804.00  4.69288e-16
      7806.00  4.74990e-16
      7808.00  4.85799e-16
      7810.00  4.90610e-16
      7812.00  4.82593e-16
      7814.00  4.83246e-16
      7816.00  4.68876e-16
      7818.00  4.72067e-16
      7820.00  4.66851e-16
      7822.00  4.91306e-16
      7824.00  4.86441e-16
      7826.00  4.85322e-16
      7828.00  4.64687e-16
      7830.00  4.65743e-16
      7832.00  4.59736e-16
      7834.00  4.77034e-16
      7836.00  4.72202e-16
      7838.00  4.62737e-16
      7840.00  4.55658e-16
      7842.00  4.40636e-16
      7844.00  4.41644e-16
      7846.00  4.36722e-16
      7848.00  4.53441e-16
      7850.00  4.58829e-16
      7852.00  4.63775e-16
      7854.00  4.47685e-16
      7856.00  4.54781e-16
      7858.00  4.60096e-16
      7860.00  4.36947e-16
      7862.00  4.40437e-16
      7864.00  4.33355e-16
      7866.00  4.44943e-16
      7868.00  4.23289e-16
      7870.00  4.26604e-16
      7872.00  4.30113e-16
      7874.00  4.13550e-16
      7876.00  4.17718e-16
      7878.00  4.16048e-16
      7880.00  4.15162e-16
      7882.00  4.07950e-16
      7884.00  3.98801e-16
      7886.00  3.95584e-16
      7888.00  4.07083e-16
      7890.00  3.96328e-16
      7892.00  4.06820e-16
      7894.00  3.94109e-16
      7896.00  3.82157e-16
      7898.00  3.77468e-16
      7900.00  3.86497e-16
      7902.00  3.91622e-16
      7904.00  3.94907e-16
      7906.00  3.92819e-16
      7908.00  3.65906e-16
      7910.00  3.63355e-16
      7912.00  3.67186e-16
      7914.00  3.79911e-16
      7916.00  3.72640e-16
      7918.00  3.76355e-16
      7920.00  3.67626e-16
      7922.00  3.65337e-16
      7924.00  3.63715e-16
      7926.00  3.55394e-16
      7928.00  3.66856e-16
      7930.00  3.83582e-16
      7932.00  3.69345e-16
      7934.00  3.63825e-16
      7936.00  3.78128e-16
      7938.00  3.82937e-16
      7940.00  3.59017e-16
      7942.00  3.62900e-16
      7944.00  3.63002e-16
      7946.00  3.64259e-16
      7948.00  3.77508e-16
      7950.00  3.69632e-16
      7952.00  3.61662e-16
      7954.00  3.59501e-16
      7956.00  3.66601e-16
      7958.00  3.61463e-16
      7960.00  3.47846e-16
      7962.00  3.37264e-16
      7964.00  3.49299e-16
      7966.00  3.78283e-16
      7968.00  3.65506e-16
      7970.00  3.60553e-16
      7972.00  3.53306e-16
      7974.00  3.59041e-16
      7976.00  3.58437e-16
      7978.00  3.60218e-16
      7980.00  3.65071e-16
      7982.00  3.48852e-16
      7984.00  3.51308e-16
      7986.00  3.54903e-16
      7988.00  3.40182e-16
      7990.00  3.62027e-16
      7992.00  3.72778e-16
      7994.00  3.60306e-16
      7996.00  3.49177e-16
      7998.00  3.52812e-16
      8000.00  3.41169e-16
      8002.00  3.49216e-16
      8004.00  3.48650e-16
      8006.00  3.31627e-16
      8008.00  3.39410e-16
      8010.00  3.45798e-16
      8012.00  3.46609e-16
      8014.00  3.32571e-16
      8016.00  3.32587e-16
      8018.00  3.37324e-16
      8020.00  3.32288e-16
      8022.00  3.24450e-16
      8024.00  3.27254e-16
      8026.00  3.40298e-16
      8028.00  3.44871e-16
      8030.00  3.40442e-16
      8032.00  3.25276e-16
      8034.00  3.32914e-16
      8036.00  3.43543e-16
      8038.00  3.37737e-16
      8040.00  3.29325e-16
      8042.00  3.24597e-16
      8044.00  3.30262e-16
      8046.00  3.14248e-16
      8048.00  3.21832e-16
      8050.00  3.16036e-16
      8052.00  3.20044e-16
      8054.00  3.09049e-16
      8056.00  3.06237e-16
      8058.00  3.05015e-16
      8060.00  2.95358e-16
      8062.00  3.06472e-16
      8064.00  3.03692e-16
      8066.00  3.06610e-16
      8068.00  2.99359e-16
      8070.00  3.02376e-16
      8072.00  2.94284e-16
      8074.00  2.90791e-16
      8076.00  2.97266e-16
      8078.00  3.01997e-16
      8080.00  2.88023e-16
      8082.00  2.96086e-16
      8084.00  2.87067e-16
      8086.00  2.82991e-16
      8088.00  2.90799e-16
      8090.00  2.92788e-16
      8092.00  2.83795e-16
      8094.00  2.84438e-16
      8096.00  2.88119e-16
      8098.00  2.88752e-16
      8100.00  2.90657e-16
      8102.00  2.75497e-16
      8104.00  2.81938e-16
      8106.00  2.78347e-16
      8108.00  2.83115e-16
      8110.00  2.78534e-16
      8112.00  2.75691e-16
      8114.00  2.80265e-16
      8116.00  2.86105e-16
      8118.00  2.77695e-16
      8120.00  2.75730e-16
      8122.00  2.77750e-16
      8124.00  2.73686e-16
      8126.00  2.72704e-16
      8128.00  2.76357e-16
      8130.00  2.69247e-16
      8132.00  2.66587e-16
      8134.00  2.75927e-16
      8136.00  2.83659e-16
      8138.00  2.71330e-16
      8140.00  2.79923e-16
      8142.00  2.67784e-16
      8144.00  2.73875e-16
      8146.00  2.73719e-16
      8148.00  2.69526e-16
      8150.00  2.71114e-16
      8152.00  2.80916e-16
      8154.00  2.72006e-16
      8156.00  2.63780e-16
      8158.00  2.77729e-16
      8160.00  2.82074e-16
      8162.00  2.81906e-16
      8164.00  2.97632e-16
      8166.00  2.86885e-16
      8168.00  2.78192e-16
      8170.00  2.89811e-16
      8172.00  2.87141e-16
      8174.00  2.81413e-16
      8176.00  2.85712e-16
      8178.00  2.92926e-16
      8180.00  2.77604e-16
      8182.00  2.81481e-16
      8184.00  2.87449e-16
      8186.00  2.76485e-16
      8188.00  2.85253e-16
      8190.00  2.87497e-16
      8192.00  2.82761e-16
      8194.00  2.99102e-16
      8196.00  2.95822e-16
      8198.00  2.86778e-16
      8200.00  2.91429e-16
      8202.00  2.95771e-16
      8204.00  2.84820e-16
      8206.00  2.99565e-16
      8208.00  2.89680e-16
      8210.00  2.78758e-16
      8212.00  2.97766e-16
      8214.00  2.94084e-16
      8216.00  2.93053e-16
      8218.00  2.95216e-16
      8220.00  2.91755e-16
      8222.00  2.91038e-16
      8224.00  2.87022e-16
      8226.00  2.86239e-16
      8228.00  2.88592e-16
      8230.00  3.09176e-16
      8232.00  3.11725e-16
      8234.00  3.02467e-16
      8236.00  2.84264e-16
      8238.00  2.88027e-16
      8240.00  2.99734e-16
      8242.00  2.92078e-16
      8244.00  2.98450e-16
      8246.00  2.93127e-16
      8248.00  2.85957e-16
      8250.00  2.91622e-16
      8252.00  3.00858e-16
      8254.00  3.04482e-16
      8256.00  2.84232e-16
      8258.00  2.82472e-16
      8260.00  2.99916e-16
      8262.00  2.87365e-16
      8264.00  2.82290e-16
      8266.00  2.91385e-16
      8268.00  2.91095e-16
      8270.00  2.88821e-16
      8272.00  2.76018e-16
      8274.00  2.93398e-16
      8276.00  2.86068e-16
      8278.00  2.66288e-16
      8280.00  2.66688e-16
      8282.00  2.94907e-16
      8284.00  2.91845e-16
      8286.00  2.80569e-16
      8288.00  2.81535e-16
      8290.00  2.66212e-16
      8292.00  2.79948e-16
      8294.00  2.70570e-16
      8296.00  2.54652e-16
      8298.00  2.44834e-16
      8300.00  2.49467e-16
      8302.00  2.48978e-16
      8304.00  2.44967e-16
      8306.00  2.47105e-16
      8308.00  2.48183e-16
      8310.00  2.46294e-16
      8312.00  2.41109e-16
      8314.00  2.20275e-16
      8316.00  2.19711e-16
      8318.00  2.18762e-16
      8320.00  2.20977e-16
      8322.00  2.19057e-16
      8324.00  2.11388e-16
      8326.00  2.04891e-16
      8328.00  1.95640e-16
      8330.00  1.92173e-16
      8332.00  1.87149e-16
      8334.00  1.83332e-16
      8336.00  1.72702e-16
      8338.00  1.80502e-16
      8340.00  1.87532e-16
      8342.00  1.76314e-16
      8344.00  1.56755e-16
      8346.00  1.48510e-16
      8348.00  1.32658e-16
      8350.00  1.33507e-16
      8352.00  1.30443e-16
      8354.00  1.49978e-16
      8356.00  1.42760e-16
      8358.00  1.36660e-16
      8360.00  1.31068e-16
      8362.00  1.23825e-16
      8364.00  1.25259e-16
      8366.00  1.11879e-16
      8368.00  1.14266e-16
      8370.00  1.18991e-16
      8372.00  1.14448e-16
      8374.00  1.14510e-16
      8376.00  1.15662e-16
      8378.00  1.05533e-16
      8380.00  1.00607e-16
      8382.00  1.20261e-16
      8384.00  1.08096e-16
      8386.00  1.08600e-16
      8388.00  1.08875e-16
      8390.00  1.11763e-16
      8392.00  1.05776e-16
      8394.00  1.10675e-16
      8396.00  1.13352e-16
      8398.00  9.85441e-17
      8400.00  1.12249e-16
      8402.00  1.12196e-16
      8404.00  1.13032e-16
      8406.00  1.23850e-16
      8408.00  1.37933e-16
      8410.00  1.31183e-16
      8412.00  1.34125e-16
      8414.00  1.35136e-16
      8416.00  1.29303e-16
      8418.00  1.28979e-16
      8420.00  1.46437e-16
      8422.00  1.45518e-16
      8424.00  1.56433e-16
      8426.00  1.51341e-16
      8428.00  1.61569e-16
      8430.00  1.83947e-16
      8432.00  1.69527e-16
      8434.00  1.67585e-16
      8436.00  1.92312e-16
      8438.00  1.88978e-16
      8440.00  1.90508e-16
      8442.00  2.00996e-16
      8444.00  2.16903e-16
      8446.00  2.19906e-16
      8448.00  2.22365e-16
      8450.00  2.17291e-16
      8452.00  2.29253e-16
      8454.00  2.49118e-16
      8456.00  2.48828e-16
      8458.00  2.51563e-16
      8460.00  2.65553e-16
      8462.00  2.65342e-16
      8464.00  2.68498e-16
      8466.00  2.73023e-16
      8468.00  2.77310e-16
      8470.00  2.84208e-16
      8472.00  2.92782e-16
      8474.00  2.85369e-16
      8476.00  2.93674e-16
      8478.00  3.01831e-16
      8480.00  3.02548e-16
      8482.00  3.11262e-16
      8484.00  3.08549e-16
      8486.00  3.07965e-16
      8488.00  3.26824e-16
      8490.00  3.14638e-16
      8492.00  3.16429e-16
      8494.00  3.22801e-16
      8496.00  3.08543e-16
      8498.00  3.08780e-16
      8500.00  3.11452e-16
      8502.00  3.12898e-16
      8504.00  3.20217e-16
      8506.00  3.07755e-16
      8508.00  2.94251e-16
      8510.00  2.90853e-16
      8512.00  3.04597e-16
      8514.00  3.08051e-16
      8516.00  3.20869e-16
      8518.00  3.24755e-16
      8520.00  3.12447e-16
      8522.00  3.07361e-16
      8524.00  3.14583e-16
      8526.00  3.14978e-16
      8528.00  3.18341e-16
      8530.00  3.32554e-16
      8532.00  3.26331e-16
      8534.00  3.35656e-16
      8536.00  3.36210e-16
      8538.00  3.38925e-16
      8540.00  3.45122e-16
      8542.00  3.41318e-16
      8544.00  3.54074e-16
      8546.00  3.51563e-16
      8548.00  3.52667e-16
      8550.00  3.61274e-16
      8552.00  3.68212e-16
      8554.00  3.76495e-16
      8556.00  3.74611e-16
      8558.00  3.82500e-16
      8560.00  3.87387e-16
      8562.00  4.15777e-16
      8564.00  4.16041e-16
      8566.00  4.08083e-16
      8568.00  4.24357e-16
      8570.00  4.33624e-16
      8572.00  4.33885e-16
      8574.00  4.41647e-16
      8576.00  4.51681e-16
      8578.00  4.64917e-16
      8580.00  4.66027e-16
      8582.00  4.71787e-16
      8584.00  4.80568e-16
      8586.00  4.85078e-16
      8588.00  4.92070e-16
      8590.00  4.95992e-16
      8592.00  5.10080e-16
      8594.00  5.16969e-16
      8596.00  5.21428e-16
      8598.00  5.36024e-16
      8600.00  5.47354e-16
      8602.00  5.63172e-16
      8604.00  5.69467e-16
      8606.00  5.85022e-16
      8608.00  6.01676e-16
      8610.00  6.02981e-16
      8612.00  6.10211e-16
      8614.00  6.21744e-16
      8616.00  6.39941e-16
      8618.00  6.33881e-16
      8620.00  6.50902e-16
      8622.00  6.64112e-16
      8624.00  6.78247e-16
      8626.00  6.83596e-16
      8628.00  6.68222e-16
      8630.00  6.86311e-16
      8632.00  6.97876e-16
      8634.00  6.98049e-16
      8636.00  7.09110e-16
      8638.00  7.22194e-16
      8640.00  7.17867e-16
      8642.00  7.12193e-16
      8644.00  7.10009e-16
      8646.00  7.11679e-16
      8648.00  7.31123e-16
      8650.00  7.39242e-16
      8652.00  7.54529e-16
      8654.00  7.46776e-16
      8656.00  7.56310e-16
      8658.00  7.65243e-16
      8660.00  7.65499e-16
      8662.00  7.58696e-16
      8664.00  7.56341e-16
      8666.00  7.66366e-16
      8668.00  7.73948e-16
      8670.00  8.02573e-16
      8672.00  8.10264e-16
      8674.00  7.96483e-16
      8676.00  8.01663e-16
      8678.00  8.02718e-16
      8680.00  8.09294e-16
      8682.00  8.09616e-16
      8684.00  8.01483e-16
      8686.00  8.03734e-16
      8688.00  8.19678e-16
      8690.00  8.37198e-16
      8692.00  8.29906e-16
      8694.00  8.43059e-16
      8696.00  8.50892e-16
      8698.00  8.42717e-16
      8700.00  8.44165e-16
      8702.00  8.49920e-16
      8704.00  8.43886e-16
      8706.00  8.51588e-16
      8708.00  8.42562e-16
      8710.00  8.48441e-16
      8712.00  8.56681e-16
      8714.00  8.48320e-16
      8716.00  8.53439e-16
      8718.00  8.43873e-16
      8720.00  8.44466e-16
      8722.00  8.45838e-16
      8724.00  8.31232e-16
      8726.00  8.18306e-16
      8728.00  8.43420e-16
      8730.00  8.24114e-16
      8732.00  8.19132e-16
      8734.00  8.28326e-16
      8736.00  8.05925e-16
      8738.00  7.94928e-16
      8740.00  7.90999e-16
      8742.00  7.87574e-16
      8744.00  7.69209e-16
      8746.00  7.78213e-16
      8748.00  7.73484e-16
      8750.00  7.72151e-16
      8752.00  7.74445e-16
      8754.00  7.45570e-16
      8756.00  7.41570e-16
      8758.00  7.24154e-16
      8760.00  7.37114e-16
      8762.00  7.40087e-16
      8764.00  7.29010e-16
      8766.00  7.26302e-16
      8768.00  7.30843e-16
      8770.00  7.09073e-16
      8772.00  7.10754e-16
      8774.00  6.80872e-16
      8776.00  6.78403e-16
      8778.00  6.76381e-16
      8780.00  6.70049e-16
      8782.00  6.86560e-16
      8784.00  6.66197e-16
      8786.00  6.56481e-16
      8788.00  6.38895e-16
      8790.00  6.41482e-16
      8792.00  6.37640e-16
      8794.00  6.26173e-16
      8796.00  6.15127e-16
      8798.00  5.99994e-16
      8800.00  5.95112e-16
      8802.00  5.90136e-16
      8804.00  5.89025e-16
      8806.00  5.83646e-16
      8808.00  5.73364e-16
      8810.00  5.72619e-16
      8812.00  5.77586e-16
      8814.00  5.57892e-16
      8816.00  5.47045e-16
      8818.00  5.40111e-16
      8820.00  5.28838e-16
      8822.00  5.10601e-16
      8824.00  5.34483e-16
      8826.00  5.44311e-16
      8828.00  5.28059e-16
      8830.00  5.20828e-16
      8832.00  5.05243e-16
      8834.00  4.88844e-16
      8836.00  4.86936e-16
      8838.00  5.00260e-16
      8840.00  4.95770e-16
      8842.00  4.90464e-16
      8844.00  4.91093e-16
      8846.00  4.77307e-16
      8848.00  4.69231e-16
      8850.00  4.68613e-16
      8852.00  4.60796e-16
      8854.00  4.52060e-16
      8856.00  4.37719e-16
      8858.00  4.39658e-16
      8860.00  4.38553e-16
      8862.00  4.47370e-16
      8864.00  4.35842e-16
      8866.00  4.25745e-16
      8868.00  4.25401e-16
      8870.00  4.24916e-16
      8872.00  4.16156e-16
      8874.00  4.06225e-16
      8876.00  3.95815e-16
      8878.00  3.98311e-16
      8880.00  3.80555e-16
      8882.00  3.68288e-16
      8884.00  3.79795e-16
      8886.00  3.64288e-16
      8888.00  3.66287e-16
      8890.00  3.90283e-16
      8892.00  3.87574e-16
      8894.00  3.78425e-16
      8896.00  3.63896e-16
      8898.00  3.57981e-16
      8900.00  3.58145e-16
      8902.00  3.63468e-16
      8904.00  3.53722e-16
      8906.00  3.53463e-16
      8908.00  3.49389e-16
      8910.00  3.45511e-16
      8912.00  3.54447e-16
      8914.00  3.44495e-16
      8916.00  3.12186e-16
      8918.00  3.04012e-16
      8920.00  3.09978e-16
      8922.00  3.34173e-16
      8924.00  3.68638e-16
      8926.00  3.69673e-16
      8928.00  3.68228e-16
      8930.00  3.64659e-16
      8932.00  3.69863e-16
      8934.00  3.67476e-16
      8936.00  3.68819e-16
      8938.00  3.65577e-16
      8940.00  3.59986e-16
      8942.00  3.43522e-16
      8944.00  3.52408e-16
      8946.00  3.60471e-16
      8948.00  3.48029e-16
      8950.00  3.45876e-16
      8952.00  3.65545e-16
      8954.00  3.44339e-16
      8956.00  3.37968e-16
      8958.00  3.47510e-16
      8960.00  3.39364e-16
      8962.00  3.46573e-16
      8964.00  3.52621e-16
      8966.00  3.68054e-16
      8968.00  3.33162e-16
      8970.00  3.18958e-16
      8972.00  3.49382e-16
      8974.00  3.48690e-16
      8976.00  3.39572e-16
      8978.00  3.47446e-16
      8980.00  3.50968e-16
      8982.00  3.42942e-16
      8984.00  3.25230e-16
      8986.00  3.27096e-16
      8988.00  3.32984e-16
      8990.00  3.63464e-16
      8992.00  3.86129e-16
      8994.00  3.66155e-16
      8996.00  3.45591e-16
      8998.00  3.54656e-16
      9000.00  3.60506e-16
      9002.00  3.48762e-16
      9004.00  3.66147e-16
      9006.00  3.73859e-16
      9008.00  4.26331e-16
      9010.00  4.70346e-16
      9012.00  4.74319e-16
      9014.00  4.40804e-16
      9016.00  3.89169e-16
      9018.00  3.64649e-16
      9020.00  3.26769e-16
      9022.00  3.07306e-16
      9024.00  3.26012e-16
      9026.00  3.26244e-16
      9028.00  3.04189e-16
      9030.00  3.08558e-16
      9032.00  3.10637e-16
      9034.00  2.98183e-16
      9036.00  3.12557e-16
      9038.00  3.04749e-16
      9040.00  2.97407e-16
      9042.00  3.09015e-16
      9044.00  3.12832e-16
      9046.00  3.16216e-16
      9048.00  3.19619e-16
      9050.00  3.09726e-16
      9052.00  3.09136e-16
      9054.00  3.15154e-16
      9056.00  3.12267e-16
      9058.00  3.13773e-16
      9060.00  3.30525e-16
      9062.00  3.48515e-16
      9064.00  3.31138e-16
      9066.00  3.02187e-16
      9068.00  2.98782e-16
      9070.00  3.23885e-16
      9072.00  3.16509e-16
      9074.00  3.11569e-16
      9076.00  2.95675e-16
      9078.00  3.02000e-16
      9080.00  3.17015e-16
      9082.00  3.26911e-16
      9084.00  3.07735e-16
      9086.00  3.11329e-16
      9088.00  3.19171e-16
      9090.00  3.04528e-16
      9092.00  2.95395e-16
      9094.00  3.05098e-16
      9096.00  2.85939e-16
      9098.00  3.04474e-16
      9100.00  3.38469e-16
      9102.00  3.05248e-16
      9104.00  2.83772e-16
      9106.00  3.06750e-16
      9108.00  3.15841e-16
      9110.00  3.05036e-16
      9112.00  2.94832e-16
      9114.00  2.83183e-16
      9116.00  2.80448e-16
      9118.00  3.16043e-16
      9120.00  3.29014e-16
      9122.00  2.99860e-16
      9124.00  2.98774e-16
      9126.00  2.85404e-16
      9128.00  2.77553e-16
      9130.00  3.01723e-16
      9132.00  2.87799e-16
      9134.00  2.81953e-16
      9136.00  3.02810e-16
      9138.00  3.02899e-16
      9140.00  2.93826e-16
      9142.00  2.90862e-16
      9144.00  2.88671e-16
      9146.00  2.73005e-16
      9148.00  2.82414e-16
      9150.00  2.69940e-16
      9152.00  2.69166e-16
      9154.00  2.76643e-16
      9156.00  2.98489e-16
      9158.00  2.84333e-16
      9160.00  2.68057e-16
      9162.00  2.83232e-16
      9164.00  2.53461e-16
      9166.00  2.45214e-16
      9168.00  2.66542e-16
      9170.00  2.68173e-16
      9172.00  2.50475e-16
      9174.00  2.64063e-16
      9176.00  2.65047e-16
      9178.00  2.82455e-16
      9180.00  2.70173e-16
      9182.00  2.48756e-16
      9184.00  2.59964e-16
      9186.00  2.72764e-16
      9188.00  2.51070e-16
      9190.00  2.60622e-16
      9192.00  2.60449e-16
      9194.00  2.78916e-16
      9196.00  2.78152e-16
      9198.00  2.81866e-16
      9200.00  2.70819e-16
      9202.00  2.74680e-16
      9204.00  2.85592e-16
      9206.00  3.06158e-16
      9208.00  3.31608e-16
      9210.00  3.12341e-16
      9212.00  2.99011e-16
      9214.00  2.81880e-16
      9216.00  3.24281e-16
      9218.00  3.30426e-16
      9220.00  3.56150e-16
      9222.00  3.90594e-16
      9224.00  4.58010e-16
      9226.00  4.38927e-16
      9228.00  3.95416e-16
      9230.00  3.59326e-16
      9232.00  3.28650e-16
      9234.00  3.05882e-16
      9236.00  2.84274e-16
      9238.00  2.94395e-16
      9240.00  2.94795e-16
      9242.00  2.85202e-16
      9244.00  2.99898e-16
      9246.00  3.04998e-16
      9248.00  2.89826e-16
      9250.00  2.86853e-16
      9252.00  2.97035e-16
      9254.00  2.96437e-16
      9256.00  2.95035e-16
      9258.00  2.94824e-16
      9260.00  3.19455e-16
      9262.00  3.34167e-16
      9264.00  3.19758e-16
      9266.00  3.07332e-16
      9268.00  3.06153e-16
      9270.00  3.06127e-16
      9272.00  3.12133e-16
      9274.00  3.27417e-16
      9276.00  3.12181e-16
      9278.00  3.20515e-16
      9280.00  3.33374e-16
      9282.00  3.23196e-16
      9284.00  3.22989e-16
      9286.00  3.40920e-16
      9288.00  3.37641e-16
      9290.00  3.29498e-16
      9292.00  3.12365e-16
      9294.00  3.36971e-16
      9296.00  3.54394e-16
      9298.00  3.58362e-16
      9300.00  3.73006e-16
      9302.00  3.44621e-16
      9304.00  3.15693e-16
      9306.00  3.19658e-16
      9308.00  3.52325e-16
      9310.00  3.60169e-16
      9312.00  3.13524e-16
      9314.00  2.80967e-16
      9316.00  3.79248e-16
      9318.00  3.50733e-16
      9320.00  3.12879e-16
      9322.00  2.60936e-16
      9324.00  3.49616e-16
      9326.00  3.77488e-16
      9328.00  3.03955e-16
      9330.00  2.90910e-16
      9332.00  2.65703e-16
      9334.00  2.96845e-16
      9336.00  3.27079e-16
      9338.00  2.95884e-16
      9340.00  2.67174e-16
      9342.00  3.00589e-16
      9344.00  4.07079e-16
      9346.00  4.00882e-16
      9348.00  3.20792e-16
      9350.00  2.77198e-16
      9352.00  2.79612e-16
      9354.00  2.87424e-16
      9356.00  3.09979e-16
      9358.00  3.38401e-16
      9360.00  3.27022e-16
      9362.00  2.71713e-16
      9364.00  2.60821e-16
      9366.00  2.75694e-16
      9368.00  2.72515e-16
      9370.00  3.18399e-16
      9372.00  2.69494e-16
      9374.00  2.64359e-16
      9376.00  5.31367e-16
      9378.00  9.01738e-16
      9380.00  5.79409e-16
      9382.00  3.39801e-16
      9384.00  2.75786e-16
      9386.00  3.10709e-16
      9388.00  3.23446e-16
      9390.00  2.92335e-16
      9392.00  2.83103e-16
      9394.00  2.97185e-16
      9396.00  2.70808e-16
      9398.00  2.86052e-16
      9400.00  2.78841e-16
      9402.00  2.88385e-16
      9404.00  2.91294e-16
      9406.00  2.76880e-16
      9408.00  2.62277e-16
      9410.00  2.88353e-16
      9412.00  2.93656e-16
      9414.00  2.79343e-16
      9416.00  2.76125e-16
      9418.00  3.06093e-16
      9420.00  3.03358e-16
      9422.00  2.81039e-16
      9424.00  2.44120e-16
      9426.00  2.55351e-16
      9428.00  3.43567e-16
      9430.00  3.40357e-16
      9432.00  2.91575e-16
      9434.00  2.50280e-16
      9436.00  2.18304e-16
      9438.00  2.34851e-16
      9440.00  3.14584e-16
      9442.00  3.10618e-16
      9444.00  3.44029e-16
      9446.00  3.03017e-16
      9448.00  2.85136e-16
      9450.00  2.74693e-16
      9452.00  2.44668e-16
      9454.00  2.51111e-16
      9456.00  2.67749e-16
      9458.00  2.70802e-16
      9460.00  3.09734e-16
      9462.00  2.85674e-16
      9464.00  2.66963e-16
      9466.00  2.64309e-16
      9468.00  3.06390e-16
      9470.00  2.99958e-16
      9472.00  2.61492e-16
      9474.00  2.69364e-16
      9476.00  2.92461e-16
      9478.00  2.60407e-16
      9480.00  3.05890e-16
      9482.00  3.34912e-16
      9484.00  2.93508e-16
      9486.00  2.90897e-16
      9488.00  2.77576e-16
      9490.00  2.36484e-16
      9492.00  2.37964e-16
      9494.00  2.77491e-16
      9496.00  3.02388e-16
      9498.00  3.01096e-16
      9500.00  3.44560e-16
      9502.00  3.07111e-16
      9504.00  2.76479e-16
      9506.00  2.68347e-16
      9508.00  2.73633e-16
      9510.00  2.71208e-16
      9512.00  2.69061e-16
      9514.00  2.75161e-16
      9516.00  2.73617e-16
      9518.00  2.86189e-16
      9520.00  2.91817e-16
      9522.00  3.10351e-16
      9524.00  3.13634e-16
      9526.00  3.07710e-16
      9528.00  3.08204e-16
      9530.00  2.92550e-16
      9532.00  2.65126e-16
      9534.00  2.76068e-16
      9536.00  3.04432e-16
      9538.00  3.20864e-16
      9540.00  3.42714e-16
      9542.00  3.44484e-16
      9544.00  3.93289e-16
      9546.00  3.30322e-16
      9548.00  2.67769e-16
      9550.00  3.65459e-16
      9552.00  3.91265e-16
      9554.00  2.43909e-16
      9556.00  2.75971e-16
      9558.00  2.70858e-16
      9560.00  2.18754e-16
      9562.00  1.93163e-16
      9564.00  2.34366e-16
      9566.00  2.37501e-16
      9568.00  2.32581e-16
      9570.00  2.40660e-16
      9572.00  2.30284e-16
      9574.00  2.20329e-16
      9576.00  2.08023e-16
      9578.00  2.03706e-16
      9580.00  2.28720e-16
      9582.00  2.34965e-16
      9584.00  2.12933e-16
      9586.00  1.85164e-16
      9588.00  2.02917e-16
      9590.00  2.48823e-16
      9592.00  2.41080e-16
      9594.00  2.16124e-16
      9596.00  2.17573e-16
      9598.00  2.30924e-16
      9600.00  2.19784e-16
      9602.00  2.08543e-16
      9604.00  2.20000e-16
      9606.00  2.35379e-16
      9608.00  2.26426e-16
      9610.00  2.16580e-16
      9612.00  2.05975e-16
      9614.00  2.21361e-16
      9616.00  2.10614e-16
      9618.00  1.99820e-16
      9620.00  2.16915e-16
      9622.00  2.24480e-16
      9624.00  2.09952e-16
      9626.00  2.34710e-16
      9628.00  2.34227e-16
      9630.00  2.20568e-16
      9632.00  2.03944e-16
      9634.00  1.97613e-16
      9636.00  2.21314e-16
      9638.00  2.33207e-16
      9640.00  2.37444e-16
      9642.00  2.12606e-16
      9644.00  2.13137e-16
      9646.00  2.22339e-16
      9648.00  2.10745e-16
      9650.00  2.14487e-16
      9652.00  2.14719e-16
      9654.00  2.17298e-16
      9656.00  2.04598e-16
      9658.00  2.00198e-16
      9660.00  2.06790e-16
      9662.00  2.00414e-16
      9664.00  2.25764e-16
      9666.00  2.28610e-16
      9668.00  2.10741e-16
      9670.00  2.14584e-16
      9672.00  2.19079e-16
      9674.00  2.26365e-16
      9676.00  2.15260e-16
      9678.00  2.05531e-16
      9680.00  2.14670e-16
      9682.00  2.19985e-16
      9684.00  2.20128e-16
      9686.00  2.01651e-16
      9688.00  2.19680e-16
      9690.00  2.25087e-16
      9692.00  2.15956e-16
      9694.00  2.08033e-16
      9696.00  2.24619e-16
      9698.00  2.18685e-16
      9700.00  2.20412e-16
      9702.00  2.18293e-16
      9704.00  2.08470e-16
      9706.00  2.15602e-16
      9708.00  2.17548e-16
      9710.00  2.16022e-16
      9712.00  2.27757e-16
      9714.00  2.38442e-16
      9716.00  2.38821e-16
      9718.00  2.21672e-16
      9720.00  2.12269e-16
      9722.00  2.10991e-16
      9724.00  2.23084e-16
      9726.00  2.24221e-16
      9728.00  2.08820e-16
      9730.00  2.15561e-16
      9732.00  2.13887e-16
      9734.00  1.98590e-16
      9736.00  2.21416e-16
      9738.00  2.35498e-16
      9740.00  2.05165e-16
      9742.00  2.20025e-16
      9744.00  2.14389e-16
      9746.00  2.16072e-16
      9748.00  2.06358e-16
      9750.00  2.18298e-16
      9752.00  2.15583e-16
      9754.00  2.11529e-16
      9756.00  2.27562e-16
      9758.00  2.15799e-16
      9760.00  1.94474e-16
      9762.00  1.91518e-16
      9764.00  2.21134e-16
      9766.00  2.22167e-16
      9768.00  2.19743e-16
      9770.00  2.08660e-16
      9772.00  2.05380e-16
      9774.00  2.04263e-16
      9776.00  2.05664e-16
      9778.00  2.00610e-16
      9780.00  1.96263e-16
      9782.00  1.99013e-16
      9784.00  2.05143e-16
      9786.00  1.96523e-16
      9788.00  2.21585e-16
      9790.00  1.88202e-16
      9792.00  1.89519e-16
      9794.00  2.15565e-16
      9796.00  1.94737e-16
      9798.00  1.94728e-16
      9800.00  2.18351e-16
      9802.00  2.16369e-16
      9804.00  2.07691e-16
      9806.00  2.09878e-16
      9808.00  2.03754e-16
      9810.00  2.11977e-16
      9812.00  2.10082e-16
      9814.00  2.12147e-16
      9816.00  1.98349e-16
      9818.00  2.05180e-16
      9820.00  2.16175e-16
      9822.00  1.97948e-16
      9824.00  1.90769e-16
      9826.00  1.91805e-16
      9828.00  1.97987e-16
      9830.00  1.86335e-16
      9832.00  1.96904e-16
      9834.00  2.06843e-16
      9836.00  1.92915e-16
      9838.00  1.92247e-16
      9840.00  1.82661e-16
      9842.00  1.93155e-16
      9844.00  1.98576e-16
      9846.00  1.94172e-16
      9848.00  1.93990e-16
      9850.00  1.90196e-16
      9852.00  1.95440e-16
      9854.00  1.97187e-16
      9856.00  1.86752e-16
      9858.00  1.90146e-16
      9860.00  1.92620e-16
      9862.00  1.91156e-16
      9864.00  1.88611e-16
      9866.00  1.92691e-16
      9868.00  1.65191e-16
      9870.00  1.62352e-16
      9872.00  2.14503e-16
      9874.00  2.08410e-16
      9876.00  1.93735e-16
      9878.00  1.95554e-16
      9880.00  1.93350e-16
      9882.00  1.95657e-16
      9884.00  1.96689e-16
      9886.00  1.96218e-16
      9888.00  1.91489e-16
      9890.00  1.95714e-16
      9892.00  1.76746e-16
      9894.00  1.77745e-16
      9896.00  1.81520e-16
      9898.00  1.86026e-16
      9900.00  1.82658e-16
      9902.00  1.77860e-16
      9904.00  1.93842e-16
      9906.00  1.81935e-16
      9908.00  1.96181e-16
      9910.00  1.93601e-16
      9912.00  1.68621e-16
      9914.00  1.97784e-16
      9916.00  1.94960e-16
      9918.00  1.95995e-16
      9920.00  1.90984e-16
      9922.00  1.88241e-16
      9924.00  1.84181e-16
      9926.00  1.82503e-16
      9928.00  1.89060e-16
      9930.00  2.06378e-16
      9932.00  1.95248e-16
      9934.00  1.96002e-16
      9936.00  1.92328e-16
      9938.00  1.87223e-16
      9940.00  1.67742e-16
      9942.00  1.65204e-16
      9944.00  1.71639e-16
      9946.00  1.98877e-16
      9948.00  2.14345e-16
      9950.00  2.15275e-16
      9952.00  2.03333e-16
      9954.00  1.86226e-16
      9956.00  1.79233e-16
      9958.00  2.04230e-16
      9960.00  2.29465e-16
      9962.00  1.84112e-16
      9964.00  1.95097e-16
      9966.00  1.95291e-16
      9968.00  2.13221e-16
      9970.00  2.11839e-16
      9972.00  1.81315e-16
      9974.00  1.95621e-16
      9976.00  2.04813e-16
      9978.00  1.96481e-16
      9980.00  2.07989e-16
      9982.00  1.91765e-16
      9984.00  1.95256e-16
      9986.00  2.10455e-16
      9988.00  2.07339e-16
      9990.00  1.93075e-16
      9992.00  1.97251e-16
      9994.00  2.05536e-16
      9996.00  2.07367e-16
      9998.00  1.94824e-16
      10000.0  1.99825e-16
      10002.0  2.05630e-16
      10004.0  1.78846e-16
      10006.0  1.87271e-16
      10008.0  1.71729e-16
      10010.0  1.58678e-16
      10012.0  1.78866e-16
      10014.0  2.16975e-16
      10016.0  2.20870e-16
      10018.0  1.77435e-16
      10020.0  1.72237e-16
      10022.0  1.96342e-16
      10024.0  1.77896e-16
      10026.0  1.81227e-16
      10028.0  1.73350e-16
      10030.0  1.64029e-16
      10032.0  1.74855e-16
      10034.0  1.67100e-16
      10036.0  1.55826e-16
      10038.0  1.62369e-16
      10040.0  1.59794e-16
      10042.0  1.40344e-16
      10044.0  1.41102e-16
      10046.0  1.49476e-16
      10048.0  1.54015e-16
      10050.0  1.38812e-16
      10052.0  1.50701e-16
      10054.0  1.45787e-16
      10056.0  1.46639e-16
      10058.0  1.54277e-16
      10060.0  1.40625e-16
      10062.0  1.33761e-16
      10064.0  1.32423e-16
      10066.0  1.34340e-16
      10068.0  1.58618e-16
      10070.0  1.17969e-16
      10072.0  1.22498e-16
      10074.0  1.31182e-16
      10076.0  1.18201e-16
      10078.0  9.43094e-17
      10080.0  1.01908e-16
      10082.0  8.92523e-17
      10084.0  8.09243e-17
      10086.0  1.29009e-16
      10088.0  1.09610e-16
      10090.0  1.12247e-16
      10092.0  1.04110e-16
      10094.0  1.10229e-16
      10096.0  1.11717e-16
      10098.0  1.17262e-16
      10100.0  1.09149e-16
      10102.0  1.04743e-16
      10104.0  9.53145e-17
      10106.0  8.07002e-17
      10108.0  9.30149e-17
      10110.0  9.83727e-17
      10112.0  9.62358e-17
      10114.0  8.68460e-17
      10116.0  8.94957e-17
      10118.0  8.41591e-17
      10120.0  1.06919e-16
      10122.0  1.29608e-16
      10124.0  1.03762e-16
      10126.0  8.23452e-17
      10128.0  6.78438e-17
      10130.0  8.43677e-17
      10132.0  1.02048e-16
      10134.0  1.06450e-16
      10136.0  1.09178e-16
      10138.0  1.02058e-16
      10140.0  1.18089e-16
      10142.0  1.01182e-16
      10144.0  1.06160e-16
      10146.0  1.01581e-16
      10148.0  9.16592e-17
      10150.0  7.79023e-17
      10152.0  1.07194e-16
      10154.0  1.30234e-16
      10156.0  9.63084e-17
      10158.0  9.35056e-17
      10160.0  7.72196e-17
      10162.0  5.71527e-17
      10164.0  1.00135e-16
      10166.0  9.21927e-17
      10168.0  7.93134e-17
      10170.0  6.67593e-17
      10172.0  9.83486e-17
      10174.0  5.74808e-17
      10176.0  4.92306e-17
      10178.0  5.62090e-17
      10180.0  7.15064e-17
      10182.0  8.99665e-17
      10184.0  4.75703e-17
      10186.0  5.81541e-17
      10188.0  5.48234e-17
      10190.0  5.48884e-17
      10192.0  6.26576e-17
      10194.0  5.77722e-17
      10196.0  6.09597e-17
      10198.0  7.04242e-17
      10200.0  7.45566e-17
      10202.0  6.44389e-17
      10204.0  5.10400e-17
      10206.0  9.89985e-17
      10208.0  7.65037e-17
      10210.0  4.43319e-17
      10212.0  3.25547e-17
      10214.0  3.95604e-17
      10216.0  3.20943e-17
      10218.0  5.14764e-17
      10220.0  8.18020e-17
      10222.0  5.72629e-17
      10224.0  2.77399e-17
      10226.0  2.41025e-17
      10228.0  7.06553e-17
      10230.0  9.27413e-17
      10232.0  4.12867e-17
      10234.0  7.43200e-17
      10236.0  2.81391e-17
      10238.0  3.37198e-17
      10240.0  5.96793e-17
      10242.0  4.63202e-17
      10244.0  3.81987e-17
      10246.0  2.38822e-17
      10248.0  2.88689e-17
      10250.0  6.21802e-17
      10252.0  5.27415e-17
      10254.0  4.00990e-17
      10256.0 -9.28361e-18
      10258.0 -2.59300e-17
      10260.0  3.58668e-17
      10262.0  5.74035e-17
      10264.0  3.73405e-17
      10266.0  2.22512e-17
      10268.0  1.60690e-17
      10270.0  2.25005e-17
      10272.0 -9.41337e-18
      10274.0  1.54574e-17
      10276.0  3.88077e-17
      10278.0  2.19896e-17
      10280.0  1.72430e-17
      10282.0  4.67716e-17
      10284.0  9.02712e-17
      10286.0  1.00246e-16
      10288.0  2.56850e-17
      10290.0  3.87832e-17
      10292.0  5.58575e-17
      10294.0 -1.66111e-17
      10296.0  5.35880e-17
      10298.0  5.74053e-17
      10300.0  2.69076e-17
      10302.0  2.52292e-17
      10304.0  4.48806e-17
      10306.0  5.00680e-17
      10308.0  3.01650e-17
      10310.0  7.65095e-18
      10312.0  3.30956e-19
      10314.0  1.45470e-17
      10316.0  4.26953e-17
      10318.0  4.13654e-17
      10320.0  5.44909e-17
      10322.0  6.45178e-17
      10324.0  4.61466e-18
      10326.0  8.18330e-18
      10328.0  3.02019e-17
      10330.0 -9.09867e-18
      10332.0 -2.73496e-18
      10334.0  2.86256e-17
      10336.0 -4.18838e-18
      10338.0  1.80037e-17
      10340.0  1.50615e-17
      10342.0  1.14069e-17
      10344.0  4.66528e-17
      10346.0  5.70697e-17
      10348.0  8.29750e-17
      10350.0  5.46255e-17
      10352.0  9.42381e-17
      10354.0  8.48469e-17
      10356.0  4.50447e-17
      10358.0  2.26142e-17
      10360.0  3.19200e-17
      10362.0  5.07084e-17
      10364.0  4.80145e-17
      10366.0  4.90285e-17
      10368.0  1.17483e-17
      10370.0  7.54815e-17
      10372.0  9.07503e-17
      10374.0  1.14322e-16
      10376.0  7.75460e-17
      10378.0  1.52276e-17
      10380.0  1.48299e-17
      10382.0  4.40670e-17
      10384.0  6.13349e-17
      10386.0  7.23830e-17
      10388.0  9.32333e-17
      10390.0  3.39955e-17
      10392.0  2.38411e-17
      10394.0  2.57216e-17
      10396.0  1.89926e-17
      10398.0  4.31264e-17
      10400.0  2.09149e-17
      10402.0  2.91993e-17
      10404.0  2.26382e-17
      10406.0 -2.82986e-18
      10408.0  5.19624e-18
      10410.0  1.73679e-17
      10412.0  4.03979e-17
      10414.0  2.27323e-17
      10416.0 -5.34386e-18
      10418.0  1.73399e-17
      10420.0  3.72352e-17
      10422.0  3.18108e-17
      10424.0 -1.00582e-17
      10426.0  4.35121e-17
      10428.0  6.84911e-17
      10430.0  2.88727e-17
      10432.0  5.77662e-18
      10434.0  5.88082e-17
      10436.0  4.19332e-17
      10438.0  4.44388e-17
      10440.0  5.74269e-17
      10442.0  5.96582e-17
      10444.0  4.69223e-17
      10446.0  3.17242e-17
      10448.0  3.99131e-17
      10450.0  5.76338e-17
      10452.0  4.94792e-17
      10454.0  2.04822e-17
      10456.0  3.63506e-17
      10458.0  1.68416e-17
      10460.0  3.06430e-17
      10462.0  7.88569e-17
      10464.0  6.12184e-17
      10466.0  4.76236e-17
      10468.0  7.65543e-17
      10470.0  5.90888e-17
      10472.0  3.53786e-17
      10474.0  4.71966e-17
      10476.0  4.98395e-17
      10478.0  3.92863e-17
      10480.0  4.70501e-17
      10482.0  9.48629e-18
      10484.0  9.15692e-18
      10486.0  5.85606e-17
      10488.0  4.36267e-17
      10490.0  5.87483e-17
      10492.0  3.66162e-17
      10494.0  9.95769e-18
      10496.0  3.59777e-17
      10498.0  6.04568e-17
      10500.0  4.26650e-17
      10502.0  9.95381e-18
      10504.0  3.23479e-17
      10506.0  4.31896e-17
      10508.0  5.47613e-17
      10510.0  2.75831e-17
      10512.0  1.36136e-17
      10514.0  5.29645e-17
      10516.0  3.30511e-17
      10518.0  1.43127e-17
      10520.0  6.45367e-17
      10522.0  5.35138e-17
      10524.0  4.17475e-17
      10526.0 -1.18025e-17
      10528.0  1.81474e-17
      10530.0  2.75817e-17
      10532.0  4.06397e-18
      10534.0  7.55978e-18
      10536.0  1.23771e-18
      10538.0  2.61567e-17
      10540.0  3.26690e-17
      10542.0  4.13185e-17
      10544.0  4.16767e-17
      10546.0  3.75845e-17
      10548.0  4.99359e-17
      10550.0  9.85763e-17
      10552.0  2.71478e-17
      10554.0  6.50917e-17
      10556.0  6.64050e-17
      10558.0  8.26661e-17
      10560.0  4.03102e-17
      10562.0  4.57085e-17
      10564.0  2.09521e-17
      10566.0  3.42659e-17
      10568.0  3.23202e-17
      10570.0  1.25671e-17
      10572.0  1.67804e-17
      10574.0  1.47991e-17
      10576.0  1.37545e-17
      10578.0  4.73798e-17
      10580.0  5.47715e-17
      10582.0 -2.50770e-18
      10584.0  2.53756e-17
      10586.0  2.60715e-17
      10588.0  9.27759e-18
      10590.0  5.43344e-17
      10592.0  5.26756e-17
      10594.0  4.12654e-17
      10596.0  3.77262e-17
      10598.0 -2.25773e-18
      10600.0  9.26558e-18
      10602.0  4.63797e-17
      10604.0  7.62477e-17
      10606.0  3.53446e-17
      10608.0  2.13395e-17
      10610.0  3.59416e-17
      10612.0  5.08596e-17
      10614.0  1.40310e-17
      10616.0  2.85764e-17
      10618.0  5.79191e-17
      10620.0  7.34052e-17
      10622.0  4.45367e-17
      10624.0  6.46702e-18
      10626.0  1.13003e-17
      10628.0  6.58186e-17
      10630.0  7.29959e-17
      10632.0  3.52919e-17
      10634.0  2.10913e-17
      10636.0  1.10497e-17
      10638.0  6.94112e-17
      10640.0  4.62135e-17
      10642.0  1.42361e-17
      10644.0  2.14873e-17
      10646.0  1.32071e-17
      10648.0  1.54479e-17
      10650.0  4.80474e-17
      10652.0  4.09412e-17
      10654.0  3.38036e-17
      10656.0  4.52862e-17
      10658.0  2.04767e-17
      10660.0  2.31869e-17
      10662.0  3.13264e-17
      10664.0  4.13130e-17
      10666.0  2.70086e-17
      10668.0  7.27553e-17
      10670.0  5.88007e-17
      10672.0  5.65732e-17
      10674.0  3.61037e-17
      10676.0  4.97056e-17
      10678.0  4.28941e-17
      10680.0  1.84102e-17
      10682.0  4.72372e-17
      10684.0  7.49676e-17
      10686.0  6.83537e-17
      10688.0  4.25906e-17
      10690.0  8.59944e-17
      10692.0  7.28407e-17
      10694.0  7.02327e-17
      10696.0  5.31283e-17
      10698.0  2.45521e-17
      10700.0  4.48282e-17
      10702.0  7.12972e-17
      10704.0  5.65495e-17
      10706.0  5.74475e-17
      10708.0  5.23533e-17
      10710.0  5.35062e-17
      10712.0  3.33960e-17
      10714.0  6.58040e-17
      10716.0  6.44145e-17
      10718.0  5.60341e-17
      10720.0  2.94251e-17
      10722.0  4.11455e-17
      10724.0  2.67914e-17
      10726.0  3.56241e-17
      10728.0  7.14030e-17
      10730.0  5.09249e-17
      10732.0  2.84576e-17
      10734.0  4.56080e-17
      10736.0  7.02919e-17
      10738.0  4.67356e-17
      10740.0  1.48947e-17
      10742.0  2.29180e-17
      10744.0  5.42377e-17
      10746.0  4.92894e-17
      10748.0  2.25185e-17
      10750.0  4.84608e-17
      10752.0  5.99209e-17
      10754.0  8.38501e-17
      10756.0  5.99798e-17
      10758.0  5.70790e-17
      10760.0  7.23514e-17
      10762.0  6.14930e-17
      10764.0  5.69964e-17
      10766.0  4.74795e-17
      10768.0  4.65833e-17
      10770.0  6.98497e-17
      10772.0  7.83805e-17
      10774.0  4.51823e-17
      10776.0  5.11500e-17
      10778.0  4.56722e-17
      10780.0  4.47889e-17
